WAVELENGTH       R          %15.7g  angstroms
THROUGHPUT       R          %15.7g  ""
GRFTABLE t mtab$o4g13576m_tmg.fits
CMPTABLE t mtab$o9k1612hm_tmc.fits
EXPR     t nicmos,2,f190n
APERAREA r 45238.93
ZEROPT   r -21.1
URESP    r 4.995194E-19
PIVWV    r 19003.38
BANDW    r 62.56868
TPEAK    r 0.2514151
EQUVW    r 46.25806
RECTW    r 183.9908
EMFLX    r 9.200486E-17
       18498.   5.042849E-4
     18498.18   4.516129E-4
     18498.36   3.972042E-4
     18498.54   3.433750E-4
     18498.71   2.953334E-4
     18498.91   2.351370E-4
     18499.09   1.807288E-4
     18499.25   1.326874E-4
     18499.44   7.827916E-5
     18499.62   2.444978E-5
      18499.8            0.
     18499.98            0.
     18500.17            0.
     18500.35            0.
     18500.53            0.
     18500.72            0.
      18500.9            0.
     18501.06            0.
     18501.27            0.
     18501.45            0.
     18501.61            0.
     18501.79            0.
     18501.98            0.
     18502.16            0.
     18502.34            0.
     18502.53            0.
     18502.71            0.
     18502.89            0.
     18503.07   1.238537E-6
     18503.26   6.745052E-5
     18503.42   1.259144E-4
     18503.62   1.991706E-4
      18503.8   2.653833E-4
     18503.97   3.238478E-4
     18504.15   3.043335E-4
     18504.33   2.663015E-4
     18504.52   2.278603E-4
      18504.7   1.894189E-4
     18504.88   1.513864E-4
     18505.06   1.129449E-4
     18505.25   7.491222E-5
     18505.43   3.647046E-5
     18505.61            0.
     18505.78            0.
     18505.98            0.
     18506.14            0.
     18506.32            0.
     18506.51            0.
     18506.69            0.
     18506.87            0.
     18507.05            0.
     18507.24            0.
     18507.42            0.
      18507.6            0.
     18507.79            0.
     18507.97            0.
     18508.13            0.
     18508.31            0.
      18508.5            0.
     18508.68            0.
     18508.86            0.
     18509.05            0.
     18509.23            0.
     18509.41   2.605056E-5
      18509.6   8.709904E-5
     18509.78   1.481477E-4
     18509.94   2.020525E-4
     18510.14   1.595109E-4
     18510.33   8.156014E-5
     18510.49   1.115275E-5
     18510.67            0.
     18510.86            0.
     18511.04            0.
     18511.22            0.
      18511.4            0.
     18511.59            0.
     18511.77            0.
     18511.95            0.
     18512.14            0.
      18512.3            0.
      18512.5            0.
     18512.66            0.
     18512.85            0.
     18513.03            0.
     18513.21            0.
      18513.4   2.070141E-5
     18513.58   1.071396E-4
     18513.76   1.926585E-4
     18513.95   2.790973E-4
     18514.13   3.013599E-4
     18514.31   2.964490E-4
     18514.49   2.914853E-4
     18514.66   2.871026E-4
     18514.86   2.816108E-4
     18515.02   2.772278E-4
     18515.21   2.722642E-4
     18515.39   2.673004E-4
     18515.57   2.623366E-4
     18515.75   2.574256E-4
     18515.94   2.524619E-4
     18516.12   2.369204E-4
      18516.3   2.161429E-4
     18516.49   1.951419E-4
     18516.67   1.741408E-4
     18516.85   1.533632E-4
     18517.02   1.345962E-4
     18517.22   1.113608E-4
     18517.38   9.281716E-5
     18517.56   7.181580E-5
     18517.75   5.103779E-5
     18517.93   3.003631E-5
     18518.11            0.
     18518.29            0.
     18518.48            0.
     18518.66            0.
     18518.84            0.
     18519.03            0.
     18519.19            0.
     18519.37            0.
     18519.58            0.
     18519.74            0.
     18519.92            0.
     18520.11            0.
     18520.29            0.
     18520.47            0.
     18520.65            0.
     18520.84            0.
     18521.02            0.
      18521.2            0.
     18521.39            0.
     18521.55   4.692466E-5
     18521.73   1.323952E-4
     18521.94   2.269587E-4
      18522.1   2.564389E-4
     18522.28   2.554509E-4
     18522.46   2.544629E-4
     18522.65   2.534853E-4
     18522.83   2.524972E-4
     18523.01   2.515092E-4
      18523.2   2.505211E-4
     18523.36   2.496486E-4
     18523.56   2.485555E-4
     18523.75   2.475674E-4
     18523.91   2.466950E-4
     18524.09   2.556434E-4
     18524.27   2.743274E-4
     18524.46   2.932125E-4
     18524.64   3.120976E-4
     18524.82   3.309826E-4
     18525.01   3.496669E-4
     18525.19   3.685521E-4
     18525.37   3.874376E-4
     18525.56   4.063229E-4
     18525.72   4.229984E-4
      18525.9   4.418838E-4
     18526.11   4.337075E-4
     18526.27   4.056999E-4
     18526.45   3.739805E-4
     18526.63   3.425983E-4
     18526.82   3.108786E-4
       18527.   2.791589E-4
     18527.18   2.474390E-4
     18527.37   2.160564E-4
     18527.55   1.843364E-4
     18527.73   1.526163E-4
     18527.92   1.208960E-4
     18528.08   1.290797E-4
     18528.26   1.824108E-4
     18528.46   2.414156E-4
     18528.63   2.885061E-4
     18528.81   3.418377E-4
     18528.99   3.951694E-4
     18529.18   4.479340E-4
     18529.36   5.012659E-4
     18529.54   5.545983E-4
     18529.73   6.079308E-4
     18529.89   6.550222E-4
     18530.09   6.756295E-4
     18530.28   6.521645E-4
     18530.44   6.314449E-4
     18530.62   6.079795E-4
     18530.82   5.820178E-4
     18530.99   5.610485E-4
     18531.17   5.378326E-4
     18531.35   5.143670E-4
     18531.54   4.909012E-4
     18531.72   4.674354E-4
      18531.9   4.442192E-4
     18532.09   3.924862E-4
     18532.25   3.184444E-4
     18532.45   2.247768E-4
     18532.63   1.418137E-4
      18532.8   6.687915E-5
     18532.98            0.
     18533.16            0.
     18533.35            0.
     18533.53            0.
     18533.71            0.
      18533.9            0.
     18534.08            0.
     18534.26            0.
     18534.45            0.
     18534.61            0.
     18534.81            0.
       18535.            0.
     18535.16            0.
     18535.34            0.
     18535.53            0.
     18535.71            0.
     18535.89            0.
     18536.07            0.
     18536.26            0.
     18536.44            0.
     18536.62            0.
     18536.81            0.
     18536.97            0.
     18537.17            0.
     18537.36            0.
     18537.52            0.
      18537.7            0.
     18537.89   1.292218E-5
     18538.07   4.097671E-5
     18538.25   2.424802E-5
     18538.44   7.519265E-6
     18538.62            0.
      18538.8            0.
     18538.98            0.
     18539.17            0.
     18539.33            0.
     18539.54            0.
      18539.7            0.
     18539.88            0.
     18540.06            0.
     18540.25            0.
     18540.43            0.
     18540.61            0.
      18540.8            0.
     18540.98   4.547440E-6
     18541.16   3.068430E-5
     18541.35   5.654318E-5
     18541.51   7.989967E-5
     18541.69   1.060367E-4
     18541.87   1.318958E-4
     18542.06   1.429045E-4
     18542.24   1.216387E-4
     18542.43   1.003729E-4
     18542.61   7.910709E-5
     18542.79   5.806737E-5
     18542.97   3.680137E-5
     18543.16   1.553532E-5
     18543.34            0.
      18543.5            0.
     18543.71            0.
     18543.87            0.
     18544.05            0.
     18544.24            0.
     18544.42            0.
      18544.6            0.
     18544.79            0.
     18544.97            0.
     18545.15            0.
     18545.34            0.
     18545.52            0.
      18545.7            0.
     18545.87            0.
     18546.07            0.
     18546.23            0.
     18546.42            0.
      18546.6            0.
     18546.78            0.
     18546.97            0.
     18547.15            0.
     18547.33            0.
     18547.52            0.
      18547.7            0.
     18547.88            0.
     18548.04            0.
     18548.23            0.
     18548.43            0.
      18548.6            0.
     18548.78            0.
     18548.96            0.
     18549.14            0.
     18549.33            0.
     18549.51            0.
      18549.7            0.
     18549.88            0.
     18550.06            0.
     18550.24            0.
     18550.41            0.
     18550.59            0.
     18550.79            0.
     18550.96            0.
     18551.14            0.
     18551.32            0.
     18551.51            0.
     18551.69            0.
     18551.88   1.021216E-4
     18552.06   1.654346E-4
     18552.24   1.459183E-4
     18552.42   1.261920E-4
     18552.61   1.064657E-4
     18552.77   8.883781E-5
     18552.95   6.932122E-5
     18553.16   4.728626E-5
     18553.32   2.986811E-5
      18553.5   1.014147E-5
     18553.69            0.
     18553.87            0.
     18554.05            0.
     18554.24            0.
     18554.42   4.210883E-7
     18554.58   1.744926E-5
     18554.79   3.853184E-5
     18554.97   5.758731E-5
     18555.13   7.441291E-5
     18555.32   9.346848E-5
     18555.52   1.147541E-4
     18555.68   1.315798E-4
     18555.87   1.506355E-4
     18556.05   1.602369E-4
     18556.23   1.451117E-4
     18556.42   1.299863E-4
      18556.6   1.148610E-4
     18556.78   9.989642E-5
     18556.95   8.638006E-5
     18557.15   6.964542E-5
     18557.33   5.451988E-5
      18557.5   4.100337E-5
     18557.68   2.603862E-5
     18557.88   9.142893E-6
     18558.05            0.
     18558.23            0.
     18558.41            0.
      18558.6   4.007007E-9
     18558.78   1.130401E-7
     18558.96   2.220735E-7
     18559.15   3.311072E-7
     18559.31   4.273820E-7
     18559.51   5.480156E-7
      18559.7   6.570505E-7
     18559.86   7.544855E-7
     18560.04            0.
     18560.23            0.
     18560.41            0.
     18560.59            0.
     18560.78            0.
     18560.96            0.
     18561.14            0.
     18561.33            0.
     18561.51            0.
     18561.67            0.
     18561.88            0.
     18562.04            0.
     18562.22            0.
     18562.41            0.
     18562.59            0.
     18562.78            0.
     18562.96   5.999878E-5
     18563.14   1.424655E-4
     18563.33   2.249324E-4
     18563.51   3.073997E-4
     18563.69   3.889901E-4
     18563.88   4.714578E-4
     18564.04   5.248726E-4
     18564.22   5.120240E-4
     18564.43   4.978089E-4
     18564.59   4.863275E-4
     18564.77   4.734790E-4
     18564.96   4.607672E-4
     18565.14   4.479187E-4
     18565.32   4.350701E-4
     18565.51   4.222214E-4
     18565.69   4.093728E-4
     18565.85   3.978908E-4
     18566.06   3.588094E-4
     18566.24   2.653603E-4
      18566.4   1.828465E-4
     18566.59   8.939693E-5
     18566.77            0.
     18566.95            0.
     18567.14            0.
     18567.32            0.
      18567.5            0.
     18567.69            0.
     18567.87            0.
     18568.05            0.
     18568.22            0.
     18568.42            0.
     18568.58            0.
     18568.77            0.
     18568.95            0.
     18569.13            0.
     18569.32            0.
      18569.5            0.
     18569.69            0.
     18569.87   4.214176E-5
     18570.05   1.014927E-4
     18570.24   1.442008E-4
     18570.42   1.869088E-4
     18570.58   2.246194E-4
     18570.79   2.723256E-4
     18570.97   3.150341E-4
     18571.13   3.527450E-4
     18571.32   3.954539E-4
      18571.5   4.381626E-4
     18571.68   4.808717E-4
     18571.87   5.235812E-4
     18572.05   5.425421E-4
     18572.23   4.993933E-4
     18572.42   4.562441E-4
      18572.6   4.130952E-4
     18572.79   3.699459E-4
     18572.95   3.318458E-4
     18573.15   2.836469E-4
     18573.31   2.455467E-4
      18573.5   2.023969E-4
     18573.68   1.592470E-4
     18573.87   1.160970E-4
     18574.05   8.739434E-5
     18574.23   9.856680E-5
     18574.42   1.097394E-4
      18574.6   1.209119E-4
     18574.78   1.320846E-4
     18574.97   1.432572E-4
     18575.13   1.532412E-4
     18575.31   1.644139E-4
      18575.5   1.755867E-4
     18575.68   1.867594E-4
     18575.87   1.979323E-4
     18576.05   2.011012E-4
     18576.23   1.821796E-4
     18576.42   1.632579E-4
      18576.6   1.443361E-4
     18576.78   1.256156E-4
     18576.96   1.066936E-4
     18577.13   8.978470E-5
     18577.33   6.884969E-5
      18577.5   5.194063E-5
     18577.68   3.301848E-5
     18577.86   1.409632E-5
     18578.05   1.259197E-5
     18578.23   6.188984E-5
     18578.41   1.111879E-4
      18578.6   1.604860E-4
     18578.78   2.097844E-4
     18578.96   2.590827E-4
     18579.15   3.083814E-4
     18579.33   3.576802E-4
     18579.52   4.069790E-4
      18579.7   4.562782E-4
     18579.86   5.003327E-4
     18580.05   5.129958E-4
     18580.23   4.188024E-4
     18580.41   3.246090E-4
      18580.6   2.304150E-4
     18580.78   1.362208E-4
     18580.96   4.202642E-5
     18581.15            0.
     18581.33            0.
     18581.52            0.
     18581.68            0.
     18581.86            0.
     18582.07            0.
     18582.23            0.
     18582.41            0.
      18582.6            0.
     18582.78            0.
     18582.96            0.
     18583.15            0.
     18583.33            0.
     18583.51            0.
      18583.7            0.
     18583.88            0.
     18584.04            0.
     18584.23            0.
     18584.43            0.
      18584.6            0.
     18584.78            0.
     18584.96            0.
     18585.15   1.452966E-4
     18585.33   2.992805E-4
     18585.51   4.532651E-4
      18585.7   6.072496E-4
     18585.88   7.612350E-4
     18586.06   8.484006E-4
     18586.25   8.120511E-4
     18586.41   7.795682E-4
      18586.6   7.432186E-4
      18586.8   7.030015E-4
     18586.96   6.705184E-4
     18587.15   6.341680E-4
     18587.33   5.978177E-4
     18587.51   5.614672E-4
      18587.7   5.251166E-4
     18587.88   4.887661E-4
     18588.06   4.449509E-4
     18588.23   3.934675E-4
     18588.43   3.297256E-4
     18588.62   2.721125E-4
     18588.78   2.206285E-4
     18588.96   1.630152E-4
     18589.15   1.054018E-4
     18589.33   4.778810E-5
     18589.51            0.
      18589.7            0.
     18589.88            0.
     18590.06            0.
     18590.25            0.
     18590.43            0.
      18590.6   5.802696E-5
      18590.8   1.339265E-4
     18590.98   2.018751E-4
     18591.15   2.618721E-4
     18591.33   3.298210E-4
     18591.51   3.977701E-4
      18591.7   4.657194E-4
     18591.88   5.336687E-4
     18592.07   5.623802E-4
     18592.25   5.198488E-4
     18592.43   4.773173E-4
     18592.62   4.347857E-4
      18592.8   3.922539E-4
     18592.96   3.546990E-4
     18593.17   3.071898E-4
     18593.35   2.646577E-4
     18593.52   2.266501E-4
      18593.7   1.841178E-4
     18593.88   1.415852E-4
     18594.07   9.831653E-5
     18594.25   5.374868E-5
     18594.43   9.180694E-6
     18594.62            0.
      18594.8            0.
     18594.98            0.
     18595.17            0.
     18595.33            0.
     18595.54            0.
      18595.7            0.
     18595.88            0.
     18596.07            0.
     18596.25            0.
     18596.43            0.
     18596.62            0.
      18596.8            0.
     18596.99   5.302879E-5
     18597.17   1.319717E-4
     18597.35   2.109147E-4
     18597.54   2.898581E-4
      18597.7   3.604034E-4
     18597.88   4.393472E-4
     18598.07   4.757877E-4
     18598.25   4.405791E-4
     18598.44   4.053701E-4
     18598.62   3.701613E-4
      18598.8   3.349523E-4
     18598.99   2.997433E-4
     18599.17   2.645340E-4
     18599.35   2.293248E-4
     18599.52   1.978610E-4
     18599.72   1.585312E-4
     18599.91   1.233216E-4
     18600.07   1.225465E-4
     18600.25   1.692439E-4
     18600.44   2.154496E-4
     18600.62   2.616550E-4
      18600.8   3.078604E-4
     18600.99   3.540655E-4
     18601.17   4.002705E-4
     18601.36   4.464753E-4
     18601.54   4.926799E-4
     18601.72   5.388844E-4
     18601.89   5.801736E-4
     18602.09   5.764324E-4
     18602.25   5.194806E-4
     18602.44   4.549808E-4
     18602.62   3.897953E-4
     18602.81   3.252961E-4
     18602.99   2.607972E-4
     18603.17   1.962984E-4
     18603.36   1.318000E-4
     18603.54   6.730176E-5
     18603.72   2.803767E-6
     18603.91            0.
     18604.07            0.
     18604.26            0.
     18604.46            0.
     18604.62            0.
     18604.81            0.
     18604.99   1.836847E-5
     18605.18   3.915023E-5
     18605.36   5.993191E-5
     18605.54   8.071352E-5
     18605.73   1.014951E-4
     18605.91   1.222765E-4
     18606.09   1.000433E-4
     18606.28   3.591292E-5
     18606.46            0.
     18606.63            0.
     18606.83            0.
     18606.99            0.
     18607.18            0.
     18607.36            0.
     18607.54            0.
     18607.73            0.
     18607.91            0.
      18608.1            0.
     18608.28            0.
     18608.46            0.
     18608.65            0.
     18608.81            0.
       18609.            0.
      18609.2            0.
     18609.36            0.
     18609.55            0.
     18609.73            0.
     18609.92            0.
      18610.1            0.
     18610.28            0.
     18610.47            0.
     18610.63            0.
     18610.83            0.
     18611.02            0.
     18611.18            0.
     18611.37   4.341838E-6
     18611.57   2.964992E-5
     18611.73   4.989629E-5
     18611.92   7.255287E-5
      18612.1   7.751090E-5
     18612.29   6.817397E-5
     18612.47   5.883711E-5
     18612.65   4.940094E-5
     18612.84   4.006414E-5
     18613.02   3.072735E-5
     18613.21   2.139062E-5
     18613.39   1.205391E-5
     18613.55   3.710502E-6
     18613.74            0.
     18613.92            0.
     18614.11   3.817452E-6
     18614.29   4.359767E-5
     18614.47   8.337777E-5
     18614.66   1.231577E-4
     18614.84   1.629375E-4
     18615.02   2.027171E-4
     18615.21   2.429198E-4
     18615.37   2.780442E-4
     18615.58   3.224782E-4
     18615.76   3.622574E-4
     18615.92   3.978046E-4
     18616.11   3.898219E-4
     18616.29   3.479723E-4
     18616.47   3.061228E-4
     18616.66   2.638282E-4
     18616.84   2.219790E-4
     18617.03   1.801299E-4
     18617.19   1.427330E-4
     18617.39   9.643225E-5
     18617.58   5.413845E-5
     18617.74   1.718715E-5
     18617.95            0.
     18618.13            0.
     18618.29            0.
     18618.48            0.
     18618.66            0.
     18618.85            0.
     18619.03            0.
     18619.21            0.
      18619.4            0.
     18619.58            0.
     18619.77            0.
     18619.95            0.
     18620.11            0.
     18620.32            0.
      18620.5            0.
     18620.67            0.
     18620.85            0.
     18621.03            0.
     18621.22            0.
      18621.4            0.
     18621.59            0.
     18621.77            0.
     18621.93            0.
     18622.14            0.
     18622.32            0.
     18622.49   1.761419E-5
     18622.67   7.183964E-5
     18622.85   1.260648E-4
     18623.04   1.802899E-4
     18623.22   2.350917E-4
     18623.41   2.893163E-4
     18623.59   3.435407E-4
     18623.77   3.977650E-4
     18623.96   4.519891E-4
     18624.14   4.647927E-4
      18624.3   4.649209E-4
     18624.51   4.650832E-4
     18624.67   4.652134E-4
     18624.86   4.653586E-4
     18625.04   4.655040E-4
     18625.25   4.656663E-4
     18625.41   4.657962E-4
     18625.59   4.659416E-4
     18625.78   4.660870E-4
     18625.96   4.662339E-4
     18626.15   4.145837E-4
     18626.33   3.498121E-4
     18626.51   2.850407E-4
     18626.68   2.271602E-4
     18626.86   1.623893E-4
     18627.07   9.003916E-5
     18627.23   3.215921E-5
     18627.41            0.
      18627.6            0.
     18627.78            0.
     18627.97            0.
     18628.15            0.
     18628.33            0.
     18628.52            0.
      18628.7            0.
     18628.89            0.
     18629.05            0.
     18629.25            0.
     18629.42            0.
      18629.6            0.
     18629.79            0.
     18629.97            0.
     18630.15            0.
     18630.34            0.
     18630.52            0.
     18630.71            0.
     18630.89            0.
     18631.08            0.
     18631.24            0.
     18631.42            0.
     18631.63            0.
     18631.79            0.
     18631.97            0.
     18632.16            0.
     18632.34            0.
     18632.53            0.
     18632.71            0.
      18632.9            0.
     18633.08   2.206611E-6
     18633.24   4.428076E-5
     18633.45   9.687326E-5
     18633.63   1.439558E-4
      18633.8   1.860295E-4
     18633.98   2.331118E-4
     18634.16   2.306067E-4
     18634.35   2.221088E-4
     18634.53   2.137006E-4
     18634.72   2.052922E-4
      18634.9   1.968840E-4
     18635.09   1.883863E-4
     18635.27   1.799781E-4
     18635.45   1.715699E-4
     18635.62   1.640563E-4
     18635.82   1.546642E-4
     18635.99   1.471506E-4
     18636.17   1.400063E-4
     18636.37   1.321395E-4
     18636.54   1.259210E-4
     18636.72   1.188034E-4
     18636.91   1.117609E-4
     18637.09   1.047183E-4
     18637.28   9.760087E-5
     18637.46   9.055835E-5
     18637.64   8.351589E-5
     18637.81   7.722260E-5
     18638.01   6.883919E-5
      18638.2   5.369893E-5
     18638.36   4.016937E-5
     18638.54   2.502921E-5
     18638.73   9.889097E-6
     18638.91            0.
      18639.1            0.
     18639.28            0.
     18639.46            0.
     18639.65            0.
     18639.83            0.
     18640.02            0.
      18640.2            0.
     18640.37            0.
     18640.55            0.
     18640.73            0.
     18640.92            0.
      18641.1            0.
     18641.29            0.
     18641.47            0.
     18641.65            0.
     18641.84            0.
     18642.02            0.
     18642.21            0.
     18642.39            0.
     18642.55            0.
     18642.74            0.
     18642.94            0.
     18643.11            0.
     18643.29            0.
     18643.48            0.
     18643.66            0.
     18643.84            0.
     18644.03            0.
     18644.21            0.
     18644.38            0.
     18644.58            0.
     18644.77            0.
     18644.93            0.
     18645.11            0.
      18645.3            0.
     18645.48            0.
     18645.67            0.
     18645.85            0.
     18646.04            0.
     18646.22            0.
      18646.4            0.
     18646.59            0.
     18646.77            0.
     18646.96            0.
     18647.14            0.
      18647.3            0.
     18647.49   7.968452E-5
     18647.67   1.802193E-4
     18647.86   2.818233E-4
     18648.04   3.572897E-4
     18648.22   3.456166E-4
     18648.41   3.338196E-4
     18648.59   3.221466E-4
     18648.78   3.103496E-4
     18648.96   2.986767E-4
     18649.13   2.882457E-4
     18649.33   2.752070E-4
     18649.52   2.635343E-4
     18649.68   2.531034E-4
     18649.86   2.414308E-4
     18650.05   2.270984E-4
     18650.23   2.058920E-4
     18650.42   1.846856E-4
      18650.6   1.632537E-4
     18650.79   1.420475E-4
     18650.97   1.208414E-4
     18651.15   9.940960E-5
     18651.34   7.820363E-5
      18651.5   5.925367E-5
     18651.71   3.556627E-5
     18651.87   1.661646E-5
     18652.05   3.991550E-6
     18652.24   1.159276E-5
     18652.42   1.927481E-5
     18652.61   2.687596E-5
     18652.79   3.447709E-5
     18652.98   4.215906E-5
     18653.16   4.976012E-5
     18653.35   5.744206E-5
     18653.53   6.504306E-5
     18653.71   7.264406E-5
     18653.88   7.943640E-5
     18654.06   7.606438E-5
     18654.27   4.854906E-5
     18654.43   2.632526E-5
     18654.62   1.191263E-6
      18654.8            0.
     18654.98            0.
     18655.17            0.
     18655.35            0.
     18655.54            0.
     18655.72            0.
      18655.9            0.
     18656.09            0.
     18656.25            0.
     18656.44            0.
     18656.62   3.031138E-6
     18656.81   5.884604E-5
     18656.99   1.146607E-4
     18657.18   1.710689E-4
     18657.36   2.268832E-4
     18657.54   2.826973E-4
     18657.73   3.391049E-4
     18657.91   3.949188E-4
     18658.08   4.203659E-4
     18658.28   4.169419E-4
     18658.45   4.142026E-4
     18658.63   4.111372E-4
     18658.81   4.080395E-4
       18659.   4.049741E-4
     18659.18   4.018763E-4
     18659.37   3.988110E-4
     18659.55   3.957456E-4
     18659.74   3.926478E-4
     18659.92   3.895823E-4
     18660.11   3.868673E-4
     18660.27   3.847239E-4
     18660.45   3.823251E-4
     18660.66   3.796455E-4
     18660.84   3.772470E-4
     18661.01   3.751031E-4
     18661.19   3.726788E-4
     18661.37   3.702801E-4
     18661.56   3.678814E-4
     18661.74   3.654571E-4
     18661.93   3.630583E-4
     18662.11   3.471598E-4
      18662.3   3.229235E-4
     18662.48   2.984292E-4
     18662.67   2.741931E-4
     18662.83   2.525353E-4
     18663.04   2.254631E-4
      18663.2   2.038055E-4
     18663.38   1.795696E-4
     18663.57   1.550759E-4
     18663.75   1.308403E-4
     18663.94   1.066047E-4
     18664.12   3.821680E-5
      18664.3            0.
     18664.49            0.
     18664.67            0.
     18664.86            0.
     18665.02            0.
     18665.21            0.
     18665.41            0.
     18665.58            0.
     18665.76            0.
     18665.95            0.
     18666.13            0.
     18666.31            0.
      18666.5            0.
     18666.68            0.
     18666.85            0.
     18667.03            0.
     18667.24            0.
     18667.42            0.
     18667.58            0.
     18667.77   7.206781E-5
     18667.95   1.719728E-4
     18668.14   2.017013E-4
     18668.32   2.072894E-4
     18668.51   2.128776E-4
     18668.69   2.185253E-4
     18668.88   2.241133E-4
     18669.06   2.297608E-4
     18669.24   2.353489E-4
     18669.41   2.403424E-4
     18669.61   2.465843E-4
     18669.78   2.515779E-4
     18669.96   2.572253E-4
     18670.17   1.987230E-4
     18670.33   1.404782E-4
     18670.52   7.529969E-5
      18670.7   1.012143E-5
     18670.88            0.
     18671.07            0.
     18671.25            0.
     18671.44            0.
      18671.6            0.
     18671.81            0.
     18671.99            0.
     18672.16            0.
     18672.34            0.
     18672.53            0.
     18672.71            0.
     18672.89            0.
     18673.08            0.
     18673.26            0.
     18673.45            0.
     18673.63            0.
     18673.82            0.
       18674.            0.
     18674.16            0.
     18674.35            0.
     18674.53            0.
     18674.72            0.
      18674.9            0.
     18675.09            0.
     18675.27            0.
     18675.46            0.
     18675.64            0.
     18675.83            0.
     18676.01            0.
      18676.2            0.
     18676.36            0.
     18676.54            0.
     18676.75            0.
     18676.91            0.
      18677.1            0.
     18677.28            0.
     18677.47            0.
     18677.65            0.
     18677.84            0.
     18678.02            0.
     18678.18            0.
     18678.39            0.
     18678.57            0.
     18678.74            0.
     18678.92            0.
     18679.11            0.
     18679.29   4.115048E-5
     18679.48   1.486829E-4
     18679.66   2.550829E-4
     18679.85   3.626145E-4
     18680.03   4.435817E-4
     18680.21   3.900415E-4
      18680.4   3.370652E-4
     18680.58   2.835254E-4
     18680.77   2.305495E-4
     18680.93   1.832093E-4
     18681.12   1.296702E-4
      18681.3   7.669485E-5
     18681.49   2.315609E-5
     18681.67            0.
     18681.86            0.
     18682.04            0.
     18682.22            0.
     18682.41            0.
     18682.59            0.
     18682.78            0.
     18682.94            0.
     18683.15            0.
     18683.33            0.
      18683.5            0.
     18683.68            0.
     18683.87            0.
     18684.05            0.
     18684.23            0.
     18684.42            0.
      18684.6            0.
     18684.79   4.712179E-5
     18684.97   1.142968E-4
     18685.16   1.821860E-4
     18685.32   2.422143E-4
     18685.53   3.172492E-4
     18685.69   3.772771E-4
     18685.88   4.451654E-4
     18686.06   4.753257E-4
     18686.25   4.297862E-4
     18686.43   3.847259E-4
     18686.62   3.391868E-4
      18686.8   2.941271E-4
     18686.98   2.485880E-4
     18687.17   2.035288E-4
     18687.35   1.579902E-4
     18687.52   1.177246E-4
      18687.7   7.266570E-5
     18687.89   2.712762E-5
     18688.09   1.966892E-6
     18688.26   6.687672E-6
     18688.44   1.202663E-5
     18688.62   1.730937E-5
     18688.81   2.264829E-5
     18688.99   2.793100E-5
     18689.18   3.326988E-5
     18689.36   3.855256E-5
     18689.55   4.389136E-5
     18689.73   4.923019E-5
     18689.92   5.451281E-5
     18690.08   9.014919E-5
     18690.27   1.654164E-4
     18690.45   2.398910E-4
     18690.64   3.151578E-4
     18690.82   3.896320E-4
     18691.01   4.648980E-4
     18691.19   5.401638E-4
     18691.38   6.146370E-4
     18691.56   6.899025E-4
     18691.74   7.643755E-4
     18691.93   8.396396E-4
     18692.11   8.575534E-4
     18692.28   8.421906E-4
     18692.46   8.248162E-4
     18692.65   8.074418E-4
     18692.83   7.902505E-4
     18693.02   7.728763E-4
      18693.2   7.556850E-4
     18693.39   7.383112E-4
     18693.57   7.211198E-4
     18693.76   7.037458E-4
     18693.94   6.863720E-4
     18694.11   6.479364E-4
     18694.29   5.905812E-4
     18694.49   5.265141E-4
     18694.68   4.685490E-4
     18694.84   4.172958E-4
     18695.03   3.593310E-4
     18695.21   3.019766E-4
      18695.4   2.440123E-4
     18695.58   1.866583E-4
     18695.77   1.286944E-4
     18695.95   7.073076E-5
     18696.14   6.807456E-5
     18696.32   8.434290E-5
     18696.51   1.004399E-4
     18696.69   1.167081E-4
     18696.88   1.328050E-4
     18697.04   1.473607E-4
     18697.22   1.634575E-4
     18697.41   1.797253E-4
     18697.59   1.958220E-4
     18697.78   2.120899E-4
     18697.96   2.283576E-4
     18698.15   2.285043E-4
     18698.33   2.248348E-4
     18698.52   2.212040E-4
      18698.7   2.175344E-4
     18698.87   2.142899E-4
     18699.05   2.106205E-4
     18699.26   2.065648E-4
     18699.42   2.033203E-4
     18699.61   1.996895E-4
     18699.79   1.960200E-4
     18699.98   1.923507E-4
     18700.16   1.668670E-4
     18700.35   1.378802E-4
     18700.53   1.088934E-4
      18700.7   8.326294E-5
     18700.88   5.458125E-5
     18701.08   2.254321E-5
     18701.25            0.
     18701.43            0.
     18701.62            0.
      18701.8            0.
     18701.99            0.
     18702.17            0.
     18702.36            0.
     18702.54            0.
     18702.73            0.
     18702.91            0.
      18703.1            0.
     18703.28   2.333090E-6
     18703.47   2.013013E-5
     18703.63   3.586648E-5
     18703.82   5.366354E-5
     18704.02   7.363245E-5
     18704.19   9.164814E-5
     18704.37   1.120230E-4
     18704.55   1.321835E-4
     18704.74   1.525584E-4
     18704.93   1.729332E-4
     18705.11   1.930937E-4
     18705.29   2.134687E-4
     18705.46   2.314843E-4
     18705.66   2.540039E-4
     18705.85   2.743789E-4
     18706.01   2.898643E-4
      18706.2   2.760459E-4
     18706.38   2.620806E-4
     18706.57   2.481152E-4
     18706.75   2.342969E-4
     18706.94   2.203316E-4
     18707.12   2.063662E-4
     18707.31   1.925479E-4
     18707.49   1.785825E-4
     18707.68   1.646172E-4
     18707.84   1.522689E-4
     18708.03   1.414647E-4
     18708.21   1.495261E-4
      18708.4   1.575874E-4
     18708.58   1.655640E-4
     18708.77   1.736254E-4
     18708.95   1.816867E-4
     18709.13   1.896632E-4
     18709.32   1.977247E-4
     18709.51   2.057860E-4
     18709.69   2.137626E-4
     18709.88   2.218239E-4
     18710.06   2.157182E-4
     18710.22   1.844580E-4
     18710.41   1.494762E-4
     18710.62   1.100287E-4
     18710.78   7.876837E-5
     18710.96   4.378659E-5
     18711.15   8.432646E-6
     18711.33            0.
     18711.52            0.
      18711.7            0.
     18711.89            0.
     18712.05            0.
     18712.26   3.095440E-5
     18712.44   1.639385E-4
     18712.61   2.815242E-4
     18712.81   4.285067E-4
     18712.98   5.460925E-4
     18713.16   6.790764E-4
     18713.35   8.120606E-4
     18713.53   9.436453E-4
     18713.72   0.001076629
      18713.9   0.001209613
     18714.09   0.001233048
     18714.27   0.001132527
     18714.44   0.001043646
     18714.64   9.325438E-4
     18714.81   8.426041E-4
     18714.99   7.431416E-4
     18715.18   6.426209E-4
     18715.36   5.421001E-4
     18715.54   4.426373E-4
     18715.73   3.421166E-4
     18715.92   2.415956E-4
      18716.1   1.637714E-4
     18716.29   1.035574E-4
     18716.47   4.334354E-5
     18716.65            0.
     18716.82            0.
     18717.03            0.
     18717.21            0.
     18717.37            0.
     18717.56            0.
     18717.74            0.
     18717.93            0.
     18718.12            0.
      18718.3            0.
     18718.48            0.
     18718.67            0.
     18718.85            0.
     18719.04            0.
      18719.2            0.
     18719.41            0.
     18719.57            0.
     18719.76            0.
     18719.94   4.620446E-5
     18720.13   7.436708E-5
     18720.31   9.396375E-5
      18720.5   1.133542E-4
     18720.68   1.329508E-4
     18720.87   1.525475E-4
     18721.05   1.719378E-4
     18721.24   1.915344E-4
      18721.4   2.088621E-4
     18721.59   2.284588E-4
     18721.77   2.480554E-4
     18721.96   2.674458E-4
     18722.14   2.627740E-4
     18722.33   2.507882E-4
     18722.51   2.388024E-4
      18722.7   2.269428E-4
     18722.88   2.149571E-4
     18723.07   2.029714E-4
     18723.25   1.909856E-4
     18723.44   1.791261E-4
     18723.62   1.671403E-4
     18723.81   1.551546E-4
     18723.97   1.445567E-4
     18724.16   2.251583E-4
     18724.34   3.207458E-4
     18724.53   4.173503E-4
     18724.71   5.139546E-4
      18724.9   6.105590E-4
     18725.08   7.061464E-4
     18725.27   8.027509E-4
     18725.45   8.993555E-4
     18725.64   9.959597E-4
     18725.82   0.001091547
     18726.01   0.001180282
     18726.17   0.001100424
     18726.36    0.00101011
     18726.56   9.102876E-4
     18726.73   8.304302E-4
     18726.91   7.401155E-4
      18727.1   6.498004E-4
     18727.28   5.594855E-4
     18727.47   4.701212E-4
     18727.65   3.798062E-4
     18727.84   2.894912E-4
       18728.   2.105066E-4
     18728.21   2.023435E-4
     18728.39   1.949579E-4
     18728.56   1.884273E-4
     18728.74   1.810417E-4
     18728.93   1.736561E-4
     18729.11   1.662703E-4
      18729.3   1.589625E-4
     18729.48   1.515768E-4
     18729.67   1.441911E-4
     18729.85   1.368054E-4
     18730.04   1.381516E-4
     18730.22   1.718830E-4
     18730.41   2.059733E-4
     18730.57   2.361163E-4
     18730.78   2.741538E-4
     18730.94   3.042970E-4
     18731.13   3.383873E-4
     18731.31   3.721187E-4
      18731.5   4.062090E-4
     18731.68   4.402995E-4
     18731.87   4.743897E-4
     18732.05   4.680522E-4
     18732.24   3.611585E-4
      18732.4   2.666422E-4
     18732.61   1.473715E-4
     18732.77   5.285503E-5
     18732.96            0.
     18733.16            0.
     18733.33            0.
     18733.51            0.
      18733.7            0.
     18733.88            0.
     18734.07            0.
     18734.25            0.
     18734.44            0.
     18734.62            0.
     18734.81            0.
     18734.99            0.
     18735.16            0.
     18735.34   5.943034E-7
     18735.53   9.094962E-5
     18735.71   1.813050E-4
      18735.9   2.716603E-4
     18736.09   2.630320E-4
     18736.27   1.409710E-4
     18736.46   1.761152E-5
     18736.64            0.
     18736.83            0.
     18737.01            0.
     18737.18            0.
     18737.38            0.
     18737.54            0.
     18737.73            0.
     18737.92            0.
      18738.1            0.
     18738.29            0.
     18738.47            0.
     18738.66            0.
     18738.84            0.
     18739.03            0.
     18739.21            0.
      18739.4            0.
     18739.58            0.
     18739.77            0.
     18739.93   1.307188E-5
     18740.12   5.048256E-5
      18740.3   5.241724E-5
     18740.49   5.435187E-5
     18740.67   5.628652E-5
     18740.86   5.820082E-5
     18741.04   6.013546E-5
     18741.23   6.207015E-5
     18741.41   6.400479E-5
      18741.6   6.593944E-5
     18741.76   6.765006E-5
     18741.95   6.958476E-5
     18742.13   1.182590E-4
     18742.32   1.845453E-4
      18742.5   2.501337E-4
     18742.69   3.164200E-4
     18742.87   3.827064E-4
     18743.06   4.489928E-4
     18743.25   5.152790E-4
     18743.43   5.808675E-4
     18743.62   6.471541E-4
      18743.8   7.134404E-4
     18743.96   7.720515E-4
     18744.17   7.432399E-4
     18744.34   7.037487E-4
     18744.54   6.543854E-4
     18744.71   6.144244E-4
     18744.89   5.697621E-4
     18745.08   5.255701E-4
     18745.26   4.809081E-4
     18745.45   4.362458E-4
     18745.63   3.915835E-4
     18745.82   3.469213E-4
     18745.98   3.074304E-4
     18746.19   2.795620E-4
     18746.37   2.561710E-4
     18746.54   2.352422E-4
     18746.72   2.120973E-4
     18746.91   1.887063E-4
     18747.09   1.653152E-4
     18747.28   1.419241E-4
     18747.46   1.185331E-4
     18747.65   9.514200E-5
     18747.84   7.175095E-5
     18748.02   5.250200E-5
     18748.21   6.612220E-5
     18748.39   7.974241E-5
     18748.55   9.178551E-5
     18748.74   1.054057E-4
     18748.95   1.206030E-4
     18749.13   1.342232E-4
     18749.32   1.477000E-4
     18749.48   1.598865E-4
     18749.67   1.735067E-4
     18749.85   1.869835E-4
     18750.04   1.951136E-4
     18750.22   1.812832E-4
     18750.41   1.674526E-4
     18750.57   1.552236E-4
     18750.78   1.397917E-4
     18750.96   1.259613E-4
     18751.15   1.121309E-4
     18751.31   9.990181E-5
      18751.5   8.607138E-5
     18751.69   7.224096E-5
     18751.87   5.855615E-5
     18752.05   7.224944E-5
     18752.24   1.518029E-4
     18752.43   2.313563E-4
     18752.59   3.016983E-4
      18752.8   3.904629E-4
     18752.98   4.700161E-4
     18753.15   5.403577E-4
     18753.33   6.199110E-4
     18753.52   6.994641E-4
      18753.7   7.790174E-4
     18753.91   8.669439E-4
     18754.07   9.082778E-4
     18754.26   9.133505E-4
     18754.44   9.184234E-4
     18754.63   9.234966E-4
     18754.81   9.285687E-4
       18755.   9.336418E-4
     18755.19   9.387141E-4
     18755.35   9.432005E-4
     18755.56   9.488606E-4
     18755.74   9.538801E-4
     18755.93   9.589527E-4
     18756.09   9.155889E-4
     18756.28   8.238372E-4
     18756.46   7.320856E-4
     18756.65   6.412998E-4
     18756.83   5.495479E-4
     18757.02   4.577966E-4
     18757.18   3.757034E-4
     18757.39   2.742939E-4
     18757.57   1.825426E-4
     18757.76   9.079137E-5
     18757.92   9.664028E-6
     18758.11            0.
     18758.29            0.
     18758.48            0.
     18758.67            0.
     18758.85            0.
     18759.04            0.
      18759.2            0.
     18759.41            0.
     18759.59            0.
     18759.78            0.
     18759.94            0.
     18760.13            0.
     18760.31            0.
     18760.52            0.
     18760.68            0.
     18760.87            0.
     18761.05   3.785367E-5
     18761.24   1.634939E-4
     18761.43   2.891342E-4
     18761.61   4.147744E-4
      18761.8   5.404145E-4
     18761.96   6.515067E-4
     18762.17   6.896365E-4
     18762.35   7.025380E-4
     18762.54   7.154395E-4
      18762.7   7.268464E-4
     18762.89   7.397479E-4
     18763.07   7.526493E-4
     18763.26   7.655511E-4
     18763.45   7.784521E-4
     18763.63   7.913533E-4
     18763.79   8.027610E-4
       18764.   8.170207E-4
     18764.19   7.745239E-4
     18764.37   7.320275E-4
     18764.54   6.940039E-4
     18764.72   6.515072E-4
     18764.91   6.090108E-4
     18765.09   5.669616E-4
     18765.28   5.244649E-4
     18765.46   4.819685E-4
     18765.65   4.394720E-4
     18765.83   3.969757E-4
     18766.02   3.533483E-4
     18766.21   3.001050E-4
     18766.39   2.468619E-4
     18766.55   1.997840E-4
     18766.74   1.465409E-4
     18766.93   9.329797E-5
     18767.13   3.389009E-5
      18767.3            0.
     18767.48            0.
     18767.67            0.
     18767.85            0.
     18768.04            0.
     18768.22            0.
     18768.41            0.
     18768.57            0.
     18768.78   6.358389E-5
     18768.97   1.297356E-4
     18769.15   1.958873E-4
     18769.32   2.543792E-4
      18769.5   3.205308E-4
     18769.69   3.866822E-4
     18769.89   4.604935E-4
     18770.06   4.863023E-4
     18770.24   4.489565E-4
     18770.43   4.116111E-4
     18770.62   3.742654E-4
      18770.8   3.369199E-4
     18770.99   2.995743E-4
     18771.17   2.622290E-4
     18771.34   2.292078E-4
     18771.52   1.918624E-4
     18771.71   1.545171E-4
     18771.91   1.128475E-4
     18772.08   1.157440E-4
     18772.26   1.637033E-4
     18772.45   2.116625E-4
     18772.63   2.596216E-4
     18772.82   3.075806E-4
     18773.01   3.555397E-4
     18773.17   3.984504E-4
     18773.36   4.464095E-4
     18773.54   4.943684E-4
     18773.75   5.473758E-4
     18773.91   5.897816E-4
      18774.1   6.110985E-4
     18774.28   6.084381E-4
     18774.47   6.057775E-4
     18774.65   6.031170E-4
     18774.84   6.004564E-4
     18775.03   5.977958E-4
     18775.19   5.954157E-4
      18775.4   5.924748E-4
     18775.58   5.898142E-4
     18775.77   5.871536E-4
     18775.95   5.844932E-4
     18776.12   6.122952E-4
      18776.3   6.566399E-4
     18776.51   7.056528E-4
     18776.68   7.453296E-4
     18776.86   7.896745E-4
     18777.05   8.340190E-4
     18777.23   8.783637E-4
     18777.42   9.227084E-4
      18777.6   9.670532E-4
     18777.79   0.001011398
     18777.95   0.001050607
     18778.14   0.001029372
     18778.32   9.859675E-4
     18778.53   9.375378E-4
      18778.7   8.991591E-4
     18778.88   8.557548E-4
     18779.07   8.123507E-4
     18779.25   7.689464E-4
     18779.44   7.255428E-4
     18779.62   6.821387E-4
     18779.79   6.433034E-4
     18779.97   5.998997E-4
     18780.16   5.763476E-4
     18780.37   5.537957E-4
     18780.55   5.333912E-4
     18780.72   5.151347E-4
      18780.9   4.947304E-4
     18781.09   4.743260E-4
     18781.27   4.539218E-4
     18781.46   4.335172E-4
     18781.64   4.131129E-4
     18781.83   3.927086E-4
     18782.02   3.772710E-4
      18782.2   4.158469E-4
     18782.39   4.544228E-4
     18782.57   4.929986E-4
     18782.74   5.275137E-4
     18782.92   5.660895E-4
     18783.13   6.087260E-4
     18783.29   6.432410E-4
     18783.48   6.818167E-4
     18783.67   7.203924E-4
     18783.85   7.589682E-4
     18784.04   7.917814E-4
     18784.22   8.015466E-4
     18784.41   8.113117E-4
     18784.57   8.199462E-4
     18784.76   8.297113E-4
     18784.94   8.394762E-4
     18785.15   8.503723E-4
     18785.32   8.591092E-4
      18785.5   8.688744E-4
     18785.69   8.786392E-4
     18785.87   8.884040E-4
     18786.06   9.085973E-4
     18786.24   9.513849E-4
     18786.43   9.941718E-4
     18786.62    0.00103696
      18786.8   0.001079747
     18786.99   0.001122534
     18787.17   0.001165321
     18787.34   0.001203154
     18787.52   0.001246391
     18787.71   0.001289179
     18787.89   0.001331966
     18788.08   0.001341452
     18788.27   0.001307077
     18788.45   0.001272704
     18788.64    0.00123833
     18788.82   0.001203955
     18789.01   0.001169582
     18789.19   0.001135208
     18789.36   0.001104452
     18789.54   0.001070079
     18789.75   0.001032086
     18789.92   0.001001331
      18790.1   9.492692E-4
     18790.29   8.825815E-4
     18790.47   8.158937E-4
     18790.66   7.492057E-4
     18790.84   6.825185E-4
     18791.03   6.158309E-4
      18791.2   5.561629E-4
      18791.4   4.824559E-4
     18791.59   4.157684E-4
     18791.77   3.490811E-4
     18791.94   2.894134E-4
     18792.12   3.347162E-4
     18792.31   4.369030E-4
     18792.49   5.390897E-4
     18792.68   6.412761E-4
     18792.87   7.434626E-4
     18793.05   8.456489E-4
     18793.24   9.489108E-4
     18793.42   0.001051098
     18793.61   0.001153284
     18793.79    0.00125547
     18793.96   0.001345824
     18794.14   0.001327847
     18794.33    0.00127577
     18794.52   0.001223145
      18794.7   0.001171068
     18794.89   0.001118991
     18795.07   0.001066914
     18795.26   0.001014836
     18795.45   9.627594E-4
     18795.63   9.106827E-4
     18795.82   8.586055E-4
     18795.98   8.120105E-4
     18796.17   7.173692E-4
     18796.37   6.078423E-4
     18796.54   5.191782E-4
     18796.72   4.200827E-4
     18796.91   3.209871E-4
      18797.1   2.218918E-4
     18797.28   1.227964E-4
     18797.47   2.265804E-5
     18797.65            0.
     18797.84            0.
     18798.03            0.
     18798.21            0.
      18798.4   1.223483E-4
     18798.56   2.828916E-4
     18798.75   4.623219E-4
     18798.93   6.417524E-4
     18799.12   8.211828E-4
      18799.3   0.001000613
     18799.49   0.001180043
     18799.68   0.001359473
     18799.86   0.001538903
     18800.05   0.001672382
     18800.23   0.001669901
     18800.42   0.001667445
     18800.58   0.001665274
     18800.77   0.001662818
     18800.96   0.001660337
     18801.14   0.001657881
     18801.33   0.001655425
     18801.51   0.001652969
      18801.7   0.001650513
     18801.88   0.001648057
     18802.07   0.001654292
     18802.26   0.001674767
     18802.44   0.001695458
     18802.63   0.001715934
     18802.81    0.00173641
       18803.   0.001756886
     18803.19   0.001777361
     18803.35   0.001795682
     18803.54   0.001816158
     18803.72   0.001836633
     18803.91    0.00185711
     18804.09   0.001830477
     18804.28   0.001757717
     18804.46   0.001684957
     18804.65   0.001611431
     18804.84    0.00153867
     18805.02    0.00146591
     18805.21   0.001393149
     18805.37   0.001328047
     18805.56   0.001255286
     18805.75   0.001182525
     18805.93   0.001109764
     18806.12   0.001079387
      18806.3   0.001073734
     18806.49   0.001068082
     18806.68    0.00106237
     18806.86   0.001056718
     18807.05   0.001051065
     18807.21   0.001046067
      18807.4   0.001040355
      18807.6   0.001034108
     18807.79   0.001028396
     18807.96   0.001023398
     18808.14   0.001067452
     18808.33   0.001127386
     18808.51    0.00118795
      18808.7   0.001247884
     18808.88   0.001307818
     18809.07   0.001367751
     18809.26   0.001427685
     18809.44   0.001487619
     18809.63   0.001548184
     18809.81   0.001608118
     18809.98   0.001661113
     18810.16   0.001658636
     18810.35   0.001647875
     18810.54   0.001637225
     18810.72   0.001626574
     18810.91   0.001615925
     18811.09   0.001605275
     18811.28   0.001594624
     18811.47   0.001583862
     18811.65   0.001573212
     18811.84   0.001562562
       18812.   0.001553774
     18812.21   0.001580885
      18812.4   0.001605671
     18812.58     0.0016302
     18812.75   0.001651889
     18812.93   0.001676676
     18813.12   0.001701204
      18813.3   0.001725733
     18813.49   0.001750263
     18813.68   0.001774791
     18813.86    0.00179932
     18814.05   0.001799283
     18814.23    0.00172948
     18814.42   0.001659677
     18814.59   0.001597221
     18814.77   0.001527417
     18814.96   0.001457614
     18815.14    0.00138781
     18815.33   0.001318006
     18815.52   0.001247466
      18815.7   0.001177662
     18815.89   0.001107857
     18816.07   0.001081591
     18816.26   0.001123575
     18816.45      0.001166
     18816.61   0.001203122
     18816.79   0.001245105
     18816.98   0.001287531
     18817.19   0.001333935
     18817.35   0.001371499
     18817.54   0.001413483
     18817.72   0.001455467
     18817.91   0.001497893
      18818.1   0.001532719
     18818.28   0.001561103
     18818.47   0.001589487
     18818.63   0.001614882
     18818.84   0.001646553
     18819.03   0.001674937
     18819.21   0.001703322
     18819.38   0.001728717
     18819.56   0.001757102
     18819.75   0.001785486
     18819.94   0.001813871
     18820.12   0.001885857
     18820.31   0.001979542
     18820.49   0.002073227
     18820.68   0.002166912
     18820.87   0.002260596
     18821.05   0.002355268
     18821.22   0.002438106
      18821.4   0.002532778
     18821.59   0.002626464
     18821.78   0.002720149
     18821.96   0.002813836
     18822.15   0.002736672
     18822.33   0.002612656
     18822.52   0.002489931
     18822.71   0.002367206
     18822.89   0.002244481
     18823.08   0.002120464
     18823.26   0.001997738
     18823.43   0.001887931
     18823.63   0.001752286
     18823.82   0.001628268
     18823.99   0.001519752
     18824.17   0.001558045
     18824.36   0.001609684
     18824.54   0.001660786
     18824.73   0.001711887
     18824.92   0.001762989
      18825.1   0.001814629
     18825.27   0.001859813
     18825.47   0.001916833
     18825.66   0.001967935
     18825.85   0.002019575
     18826.01   0.002069675
      18826.2   0.002199946
     18826.38    0.00232886
     18826.57   0.002457776
     18826.76   0.002586691
     18826.94   0.002716963
     18827.13    0.00284588
     18827.31   0.002974794
      18827.5    0.00310371
     18827.69   0.003233984
     18827.85   0.003347973
     18828.04   0.003452395
     18828.22   0.003458514
     18828.41   0.003464633
     18828.62    0.00347146
     18828.78   0.003476934
     18828.97   0.003483053
     18829.15   0.003489171
     18829.34   0.003495289
     18829.53   0.003501473
     18829.71   0.003507591
     18829.88   0.003513064
     18830.06   0.003517895
     18830.27    0.00352059
     18830.46   0.003523004
     18830.62   0.003525164
     18830.81   0.003527578
     18830.99   0.003529991
     18831.18   0.003532406
     18831.37   0.003534846
     18831.55   0.003537261
     18831.74   0.003539674
      18831.9   0.003541834
     18832.11   0.003475475
      18832.3   0.003362802
     18832.48   0.003250129
     18832.65   0.003149314
     18832.83   0.003036642
     18833.02   0.002922782
     18833.23    0.00279706
     18833.41   0.002684386
     18833.58   0.002583572
     18833.77   0.002470897
     18833.95   0.002358222
     18834.14   0.002404231
     18834.32   0.002507996
     18834.51   0.002610678
     18834.68   0.002702554
     18834.88   0.002817127
     18835.05   0.002907922
     18835.25   0.003022497
     18835.42   0.003114372
     18835.61   0.003217057
     18835.79   0.003319742
     18835.98   0.003423508
     18836.16   0.003499475
     18836.35   0.003571944
     18836.52   0.003636785
      18836.7   0.003709252
     18836.91   0.003790113
      18837.1   0.003863344
     18837.26   0.003927422
     18837.45   0.004000654
     18837.63   0.004073123
     18837.82   0.004145592
       18838.   0.004217235
     18838.19   0.004250714
     18838.38   0.004283846
     18838.54   0.004313487
     18838.75   0.004350456
     18838.94   0.004383585
     18839.12   0.004416716
     18839.31   0.004450198
     18839.47   0.004479493
     18839.66   0.004512973
     18839.87    0.00454994
     18840.05   0.004570426
     18840.22   0.004560266
      18840.4    0.00454891
     18840.59   0.004537552
     18840.78   0.004526076
     18840.96   0.004514718
     18841.15    0.00450336
     18841.31     0.0044932
     18841.52   0.004480527
     18841.69   0.004470365
     18841.89   0.004457692
     18842.06   0.004474586
     18842.25   0.004549309
     18842.43   0.004623252
     18842.62   0.004697196
      18842.8   0.004771919
     18842.99   0.004845863
     18843.18   0.004919807
     18843.34    0.00498597
     18843.55   0.005068477
     18843.73   0.005142421
     18843.92   0.005217144
     18844.11   0.005253945
     18844.27   0.005262704
     18844.46   0.005272493
     18844.67   0.005283412
     18844.83   0.005292172
     18845.02   0.005301959
      18845.2   0.005311748
     18845.39   0.005321639
     18845.58   0.005331428
     18845.76   0.005341318
     18845.95   0.005351107
     18846.12   0.005392597
      18846.3   0.005455091
     18846.51   0.005524821
     18846.69   0.005587316
     18846.86   0.005643231
     18847.04   0.005705725
     18847.23   0.005768877
     18847.42   0.005831372
      18847.6   0.005893867
     18847.79    0.00595702
     18847.96   0.006012938
     18848.16   0.006075934
     18848.33   0.006124456
     18848.54   0.006185689
      18848.7    0.00623479
     18848.89   0.006289672
     18849.07   0.006345127
     18849.26   0.006400004
     18849.45   0.006454885
     18849.63    0.00651034
     18849.82   0.006565217
     18850.01   0.006621492
     18850.19    0.00670223
     18850.38   0.006782974
     18850.56   0.006864564
     18850.73   0.006935956
     18850.92   0.007017547
      18851.1    0.00709829
     18851.31   0.007188382
     18851.47   0.007260621
     18851.66   0.007341363
     18851.85   0.007422958
     18852.03   0.007481685
     18852.22   0.007439418
     18852.41   0.007396705
     18852.59   0.007354438
     18852.76   0.007316618
     18852.94   0.007274349
     18853.15   0.007227187
     18853.34   0.007184471
      18853.5   0.007146652
     18853.69   0.007104383
     18853.87   0.007062114
     18854.06   0.007049551
     18854.25     0.0070968
     18854.44   0.007144543
      18854.6   0.007186316
     18854.81   0.007239032
     18854.99   0.007286777
     18855.18   0.007334022
     18855.37   0.007381266
     18855.53    0.00742354
     18855.72   0.007471283
      18855.9    0.00751853
     18856.09   0.007598854
     18856.28   0.007715637
     18856.46   0.007831194
     18856.65   0.007947973
     18856.84   0.008063534
     18857.02   0.008179101
     18857.21   0.008295876
     18857.37   0.008399276
     18857.56   0.008514839
     18857.75   0.008631616
     18857.96   0.008760562
     18858.12   0.008846983
     18858.31   0.008938956
     18858.49   0.009029963
     18858.68   0.009121938
     18858.87   0.009212954
     18859.05   0.009303966
     18859.24   0.009395935
      18859.4   0.009477369
     18859.61   0.009578926
      18859.8   0.009669937
     18859.98   0.009760953
     18860.15   0.009769586
     18860.34   0.009769592
     18860.52   0.009769598
     18860.71   0.009769607
     18860.89   0.009769612
     18861.08    0.00976962
     18861.27   0.009769628
     18861.45   0.009769638
     18861.64   0.009769646
     18861.83   0.009769651
     18862.01   0.009777934
     18862.18   0.009877215
     18862.37   0.009990681
     18862.55    0.01010296
     18862.74    0.01021643
     18862.92    0.01032871
     18863.11    0.01044218
      18863.3    0.01055446
     18863.48    0.01066675
     18863.67    0.01078021
     18863.86     0.0108925
     18864.02    0.01098745
     18864.21    0.01105282
     18864.39     0.0111175
      18864.6    0.01118967
     18864.77    0.01124754
     18864.95    0.01131222
     18865.14    0.01137759
     18865.33    0.01144227
     18865.51    0.01150764
      18865.7    0.01157232
     18865.89    0.01163768
     18866.07    0.01175285
     18866.26    0.01194715
     18866.45    0.01214352
     18866.63    0.01233783
      18866.8    0.01251169
     18866.98    0.01270804
     18867.17    0.01290236
     18867.36    0.01309872
     18867.54    0.01329303
     18867.73    0.01348939
     18867.92     0.0136837
      18868.1    0.01384956
     18868.29    0.01399339
     18868.47    0.01413571
     18868.66    0.01427954
     18868.83    0.01440689
     18869.01    0.01454922
      18869.2    0.01469305
     18869.39    0.01483538
     18869.57    0.01497921
     18869.76    0.01512154
     18869.95    0.01526537
     18870.13    0.01539412
     18870.32    0.01551748
     18870.51    0.01564214
     18870.67    0.01575251
     18870.88    0.01589015
     18871.06    0.01601352
     18871.25    0.01613817
     18871.44    0.01626154
      18871.6    0.01637191
     18871.79    0.01649658
     18871.98    0.01661994
     18872.16    0.01677647
     18872.35    0.01693589
     18872.54    0.01709698
     18872.72    0.01725639
     18872.91    0.01741747
      18873.1    0.01757689
     18873.28    0.01773799
     18873.47     0.0178974
     18873.63    0.01804004
     18873.82    0.01819945
     18874.01     0.0183622
     18874.19    0.01856096
     18874.38    0.01876182
     18874.57    0.01896058
     18874.75    0.01916145
     18874.94    0.01936021
     18875.13    0.01956107
     18875.31    0.01975985
     18875.48    0.01993768
     18875.69    0.02015947
     18875.87    0.02036033
     18876.06    0.02054713
     18876.22    0.02069105
     18876.41    0.02085361
      18876.6    0.02101447
     18876.79    0.02117703
     18876.97     0.0213379
     18877.16    0.02150044
     18877.34    0.02166132
     18877.53    0.02182386
     18877.72    0.02198473
      18877.9    0.02214728
     18878.09    0.02231186
     18878.26    0.02246263
     18878.44    0.02263294
     18878.63    0.02280146
     18878.82    0.02297176
       18879.    0.02314028
     18879.19    0.02331058
     18879.38     0.0234791
     18879.56    0.02364939
     18879.75    0.02381792
     18879.94    0.02398822
     18880.12    0.02420306
     18880.29    0.02441733
     18880.47    0.02465934
     18880.68    0.02492656
     18880.87    0.02516605
     18881.03    0.02538033
     18881.22    0.02562234
     18881.41    0.02586182
     18881.59    0.02610384
     18881.78    0.02634332
     18881.97    0.02658533
     18882.15    0.02683832
     18882.34    0.02709101
     18882.53    0.02734636
     18882.71    0.02759905
     18882.88    0.02782515
     18883.07    0.02808049
     18883.25    0.02833319
     18883.44    0.02858853
     18883.63    0.02884124
     18883.81    0.02909657
       18884.    0.02934928
     18884.19    0.02965418
     18884.37    0.02995642
     18884.56    0.03026182
     18884.74    0.03056405
     18884.91    0.03083447
      18885.1    0.03113989
     18885.28    0.03144213
     18885.47    0.03174755
     18885.66    0.03205297
     18885.84     0.0323552
     18886.03    0.03264864
     18886.22     0.0328797
      18886.4     0.0331132
     18886.59    0.03334425
     18886.78    0.03357775
     18886.94    0.03378448
     18887.15     0.0340423
     18887.34     0.0342758
      18887.5    0.03448254
     18887.69     0.0347136
     18887.88    0.03494709
     18888.06    0.03520921
     18888.25     0.0355358
     18888.44    0.03585905
     18888.62    0.03618566
     18888.81    0.03650889
       18889.    0.03683551
     18889.18    0.03716211
     18889.37    0.03748534
     18889.54    0.03777452
     18889.72    0.03810116
     18889.91    0.03842439
      18890.1    0.03881679
     18890.28    0.03926754
     18890.47    0.03972308
     18890.66     0.0401786
     18890.84    0.04062935
     18891.03    0.04108487
     18891.21    0.04153563
      18891.4    0.04199116
     18891.57     0.0423945
     18891.75    0.04284526
     18891.96    0.04335298
     18892.15    0.04377099
     18892.31    0.04413768
      18892.5    0.04455182
     18892.69    0.04496165
     18892.87     0.0453758
     18893.06    0.04578562
     18893.25    0.04619976
     18893.44    0.04661392
      18893.6    0.04698058
     18893.81    0.04743788
     18893.99    0.04784771
     18894.16    0.04830167
     18894.35    0.04881797
     18894.54    0.04933427
     18894.72     0.0498452
     18894.91    0.05036152
     18895.09    0.05087246
     18895.28    0.05138876
     18895.47    0.05190507
     18895.65    0.05241601
     18895.84    0.05293233
     18896.03    0.05346398
     18896.19    0.05404674
     18896.38    0.05470493
     18896.57    0.05536311
     18896.75    0.05601447
     18896.96    0.05674125
     18897.13    0.05732401
     18897.31    0.05798221
      18897.5    0.05864039
     18897.69    0.05929176
     18897.88    0.05994994
     18898.06     0.0605964
     18898.23    0.06116574
     18898.41    0.06180874
     18898.62    0.06251871
     18898.81    0.06316171
     18898.97    0.06373104
     18899.16    0.06436736
     18899.35    0.06501038
     18899.54    0.06565338
     18899.72    0.06628969
     18899.91     0.0669327
      18900.1    0.06756733
     18900.26     0.0681221
     18900.47    0.06881399
     18900.65    0.06943405
     18900.82    0.06998885
     18901.01    0.07061542
      18901.2    0.07124202
     18901.38    0.07186207
     18901.57    0.07248867
     18901.76    0.07311522
     18901.94     0.0737353
     18902.13    0.07436422
     18902.32    0.07499424
      18902.5    0.07561768
     18902.69    0.07624767
     18902.88     0.0768711
     18903.04     0.0774289
     18903.25    0.07813109
     18903.44    0.07875452
     18903.62     0.0793845
     18903.79    0.07994232
     18903.98     0.0805723
     18904.16    0.08115662
     18904.35     0.0817414
     18904.54    0.08232616
     18904.72    0.08290485
     18904.89    0.08342261
      18905.1    0.08407438
     18905.28    0.08465303
     18905.47    0.08523781
     18905.64    0.08575555
     18905.82    0.08633421
     18906.01     0.0869275
      18906.2    0.08767615
     18906.38    0.08841699
     18906.57    0.08916566
     18906.76    0.08991431
     18906.92    0.09057719
     18907.13    0.09140379
     18907.32    0.09215245
      18907.5    0.09289329
     18907.69    0.09364194
     18907.86    0.09430479
     18908.04    0.09504712
     18908.25    0.09584466
     18908.42    0.09648421
     18908.61    0.09720647
     18908.79    0.09792127
     18908.98    0.09864358
     18909.17    0.09936584
     18909.35     0.1000806
     18909.54     0.1008029
     18909.71     0.1014424
     18909.91       0.10224
      18910.1     0.1030872
     18910.29     0.1040447
     18910.45     0.1048924
     18910.64     0.1058399
     18910.83     0.1067974
     18911.01     0.1077548
      18911.2     0.1087123
     18911.39     0.1096597
     18911.57     0.1106172
     18911.76     0.1115746
     18911.95     0.1125221
     18912.13      0.113451
      18912.3     0.1142635
     18912.49     0.1151811
     18912.67     0.1160893
     18912.86     0.1170069
     18913.07     0.1180202
     18913.23     0.1188326
     18913.42     0.1197503
     18913.61      0.120668
     18913.79     0.1215761
     18913.98     0.1224937
     18914.17     0.1235246
     18914.36     0.1245672
     18914.52     0.1254904
     18914.71     0.1265222
     18914.92     0.1276842
     18915.08     0.1286074
     18915.27     0.1296391
     18915.46     0.1306817
     18915.64     0.1317243
     18915.83     0.1327668
     18916.02     0.1338007
     18916.21     0.1348659
     18916.37      0.135809
     18916.58     0.1369852
     18916.77     0.1380504
     18916.95     0.1391155
     18917.12     0.1400587
     18917.31     0.1411239
     18917.49     0.1421779
     18917.68     0.1432431
     18917.87     0.1443083
     18918.05     0.1453477
     18918.24     0.1463607
     18918.43     0.1473738
     18918.62     0.1483868
      18918.8     0.1493893
     18918.99     0.1504023
     18919.15     0.1512993
     18919.34     0.1523124
     18919.53     0.1533253
     18919.74     0.1544439
      18919.9     0.1553408
     18920.09     0.1563318
     18920.28     0.1572887
     18920.46     0.1582557
     18920.65     0.1592228
     18920.84     0.1601898
       18921.      0.161046
     18921.19      0.162003
     18921.38       0.16297
     18921.58     0.1640377
     18921.75      0.164904
     18921.94     0.1658609
     18922.13     0.1666635
     18922.31      0.167384
      18922.5     0.1681044
     18922.69     0.1688173
     18922.87     0.1695377
     18923.04     0.1701756
     18923.25      0.170971
     18923.43     0.1716915
     18923.62     0.1724118
     18923.81     0.1731322
     18923.97     0.1737701
     18924.16     0.1746995
     18924.37     0.1757619
     18924.54     0.1766139
     18924.72      0.177576
     18924.91     0.1785382
      18925.1     0.1794903
     18925.28     0.1804525
     18925.47     0.1814146
     18925.66     0.1823768
     18925.82     0.1832287
     18926.03     0.1842632
      18926.2     0.1849675
     18926.41     0.1858539
     18926.57      0.186558
     18926.76     0.1873451
     18926.95     0.1881404
     18927.13     0.1889357
     18927.32      0.189731
     18927.51     0.1905181
     18927.67     0.1912305
     18927.86     0.1920175
     18928.07     0.1929271
     18928.26      0.193786
     18928.42     0.1945464
     18928.61     0.1953963
     18928.79     0.1962552
     18928.98     0.1971141
     18929.17     0.1979729
     18929.36     0.1988228
     18929.54     0.1996816
     18929.73     0.2005405
     18929.92     0.2013993
     18930.11     0.2022067
     18930.29      0.202966
     18930.48     0.2037332
     18930.64     0.2044126
     18930.83     0.2051798
     18931.04     0.2060271
     18931.21     0.2067144
     18931.39     0.2074737
     18931.58     0.2082409
     18931.77     0.2090082
     18931.96     0.2097755
     18932.14     0.2105637
     18932.33     0.2113504
     18932.49     0.2120543
      18932.7     0.2129403
     18932.87     0.2136442
     18933.08     0.2145219
     18933.24     0.2152341
     18933.43     0.2160208
     18933.62     0.2168156
      18933.8     0.2176105
     18933.99     0.2184055
     18934.18     0.2190316
     18934.35     0.2195795
     18934.55     0.2202628
     18934.74     0.2208816
     18934.93     0.2215003
     18935.12     0.2221191
     18935.28      0.222667
     18935.47     0.2232858
     18935.65     0.2238981
     18935.84     0.2245169
     18936.03     0.2251192
     18936.22     0.2256323
      18936.4     0.2261453
     18936.59     0.2266529
     18936.78     0.2271661
     18936.96     0.2276791
     18937.15     0.2281921
     18937.32     0.2286463
     18937.51     0.2291593
     18937.71     0.2297258
     18937.88     0.2301801
     18938.07     0.2306537
     18938.25     0.2310558
     18938.44     0.2314577
     18938.63     0.2318597
     18938.81     0.2322575
       18939.     0.2326595
     18939.17     0.2330154
     18939.38     0.2334634
     18939.56     0.2338655
     18939.75     0.2342675
     18939.94     0.2346652
     18940.11     0.2349859
     18940.29     0.2353142
     18940.48     0.2356461
     18940.67     0.2359779
     18940.85     0.2363097
     18941.04     0.2366414
     18941.23     0.2369732
     18941.41     0.2373016
      18941.6     0.2376333
     18941.79     0.2379651
     18941.96      0.238259
     18942.14     0.2385835
     18942.33     0.2389058
     18942.54     0.2392617
     18942.71     0.2395503
     18942.89     0.2398694
     18943.08     0.2401916
     18943.27     0.2405138
     18943.45     0.2408361
     18943.64     0.2411583
     18943.83     0.2414807
     18943.99      0.241766
     18944.18     0.2420223
     18944.39     0.2423029
     18944.58     0.2425572
     18944.74     0.2427822
     18944.93     0.2430365
     18945.12     0.2432907
      18945.3     0.2435448
     18945.49      0.243799
     18945.68     0.2440506
     18945.87     0.2443047
     18946.05     0.2445213
     18946.24     0.2446419
     18946.43     0.2447624
     18946.62      0.244883
     18946.78     0.2449897
     18946.97     0.2451103
     18947.16     0.2452309
     18947.34     0.2453515
     18947.53     0.2454708
     18947.72     0.2455913
      18947.9     0.2457119
     18948.09     0.2458727
     18948.28     0.2460752
     18948.47     0.2462778
     18948.63     0.2464571
     18948.82     0.2466597
     18949.01     0.2468622
     18949.21     0.2470859
     18949.38     0.2472652
     18949.57     0.2474679
     18949.76     0.2476704
     18949.94      0.247873
     18950.13     0.2479502
     18950.32     0.2479732
     18950.51     0.2479961
     18950.69      0.248019
     18950.88     0.2480418
     18951.07     0.2480648
     18951.25     0.2480876
     18951.42     0.2481081
     18951.61      0.248131
     18951.79      0.248154
     18951.98     0.2481769
     18952.17      0.248274
     18952.36     0.2483787
     18952.54     0.2484836
     18952.73     0.2485882
     18952.92      0.248693
     18953.11     0.2487966
     18953.29     0.2489012
     18953.46     0.2489951
     18953.65     0.2490987
     18953.83     0.2492036
     18954.02     0.2492956
     18954.21       0.24929
      18954.4     0.2492845
     18954.58     0.2492787
     18954.77     0.2492732
     18954.96     0.2492676
     18955.15     0.2492619
     18955.31      0.249257
      18955.5     0.2492514
     18955.71     0.2492451
     18955.89     0.2492395
     18956.06     0.2492467
     18956.25     0.2492788
     18956.44      0.249311
     18956.62      0.249343
     18956.81     0.2493751
       18957.     0.2494074
     18957.19     0.2494393
     18957.37     0.2494714
     18957.56     0.2495036
     18957.75     0.2495357
     18957.94     0.2495677
      18958.1     0.2495728
     18958.29      0.249562
     18958.48     0.2495512
     18958.66     0.2495402
     18958.85     0.2495294
     18959.04     0.2495187
     18959.22     0.2495078
     18959.41     0.2494968
      18959.6      0.249486
     18959.79     0.2494751
     18959.95     0.2494655
     18960.14     0.2494609
     18960.33     0.2494586
     18960.54      0.249456
     18960.72     0.2494533
     18960.89     0.2494512
     18961.08     0.2494488
     18961.27     0.2494463
     18961.45      0.249444
     18961.64     0.2494413
     18961.83     0.2494389
     18962.02     0.2494346
      18962.2     0.2494088
     18962.39     0.2493834
     18962.58     0.2493577
     18962.76      0.249332
     18962.93     0.2493089
     18963.12     0.2492831
     18963.31     0.2492575
     18963.49      0.249232
     18963.68     0.2492063
     18963.87     0.2491806
     18964.05     0.2491544
     18964.24     0.2491272
     18964.43     0.2491001
     18964.62     0.2490731
      18964.8     0.2490458
     18964.97     0.2490218
     18965.16     0.2489947
     18965.37     0.2489645
     18965.53     0.2489405
     18965.72     0.2489132
     18965.91     0.2488862
      18966.1       0.24889
     18966.28     0.2489235
     18966.47     0.2489571
     18966.66     0.2489904
     18966.82     0.2490202
     18967.03     0.2490575
      18967.2     0.2490871
     18967.41     0.2491244
     18967.57     0.2491539
     18967.76     0.2491876
     18967.95      0.249221
     18968.14     0.2491681
     18968.32     0.2490833
     18968.51     0.2489983
     18968.68     0.2489232
     18968.87     0.2488383
     18969.07     0.2487437
     18969.26     0.2486588
     18969.43     0.2485836
     18969.62     0.2484987
      18969.8     0.2484138
     18969.99      0.248329
     18970.18     0.2482925
     18970.37     0.2482587
     18970.55     0.2482248
     18970.72      0.248195
     18970.93     0.2481572
     18971.12     0.2481233
      18971.3     0.2480896
     18971.49     0.2480557
     18971.68     0.2480219
     18971.87     0.2479881
     18972.05     0.2479708
     18972.24     0.2479956
     18972.41     0.2480176
     18972.59     0.2480424
     18972.78     0.2480673
     18972.97      0.248092
     18973.16     0.2481168
     18973.34     0.2481416
     18973.53     0.2481664
     18973.72     0.2481913
     18973.91     0.2482161
     18974.09     0.2482136
     18974.28     0.2481839
     18974.45     0.2481575
     18974.63     0.2481279
     18974.82     0.2480981
     18975.01     0.2480683
      18975.2     0.2480386
     18975.38     0.2480088
     18975.57     0.2479791
     18975.76     0.2479495
     18975.95     0.2479193
     18976.14     0.2479269
      18976.3     0.2479458
     18976.49     0.2479673
     18976.68     0.2479887
     18976.89     0.2480126
     18977.05     0.2480316
     18977.24     0.2480529
     18977.43     0.2480743
     18977.62     0.2480958
      18977.8     0.2481171
     18977.99     0.2481385
     18978.18     0.2480115
     18978.34     0.2478918
     18978.53     0.2477566
     18978.74     0.2476059
     18978.91     0.2474861
     18979.09     0.2473508
     18979.28     0.2472156
     18979.47     0.2470805
     18979.66     0.2469452
     18979.85     0.2468085
     18980.03     0.2467212
      18980.2     0.2468412
     18980.41     0.2469923
      18980.6     0.2471279
     18980.78     0.2472633
     18980.95     0.2473834
     18981.14     0.2475189
     18981.32     0.2476544
     18981.51       0.24779
     18981.72      0.247941
     18981.89      0.248061
     18982.05     0.2481294
     18982.26     0.2480783
     18982.45      0.248032
     18982.64     0.2479856
     18982.82     0.2479394
     18983.01     0.2478929
     18983.18     0.2478516
     18983.39        0.2478
     18983.58     0.2477535
     18983.74     0.2477126
     18983.93     0.2476663
     18984.12     0.2476776
      18984.3     0.2477235
     18984.49     0.2477693
     18984.68     0.2478153
     18984.87      0.247861
     18985.05      0.247907
     18985.24     0.2479529
     18985.43     0.2479987
     18985.62     0.2480447
     18985.79     0.2480858
     18985.97     0.2481317
     18986.16     0.2481151
     18986.35     0.2480879
     18986.54     0.2480606
     18986.72     0.2480332
     18986.91      0.248006
      18987.1     0.2479787
     18987.29     0.2479514
     18987.47     0.2479241
     18987.66      0.247897
     18987.83     0.2478725
     18988.02     0.2478478
      18988.2     0.2478514
     18988.39      0.247855
     18988.58     0.2478586
     18988.77     0.2478624
     18988.95     0.2478661
     18989.14     0.2478696
     18989.33     0.2478732
     18989.52     0.2478769
     18989.68     0.2478802
     18989.87     0.2478839
     18990.06     0.2478939
     18990.27     0.2479206
     18990.43      0.247942
     18990.62      0.247966
     18990.81     0.2479901
       18991.     0.2480142
     18991.19     0.2480385
     18991.37     0.2480627
     18991.56     0.2480866
     18991.73     0.2481079
     18991.91      0.248132
     18992.12      0.248125
     18992.29     0.2481009
      18992.5     0.2480705
     18992.67      0.248046
     18992.87     0.2480159
     18993.04     0.2479913
     18993.23     0.2479641
     18993.42     0.2479367
      18993.6     0.2479095
     18993.79     0.2478822
     18993.98     0.2478549
     18994.17     0.2480719
     18994.35     0.2483204
     18994.54     0.2485717
     18994.73     0.2488202
     18994.92      0.249069
     18995.08      0.249289
     18995.27     0.2495378
     18995.46     0.2497864
     18995.65      0.250035
     18995.84     0.2502862
     18996.02     0.2504942
     18996.21      0.250417
      18996.4     0.2503399
     18996.59     0.2502628
     18996.77     0.2501857
     18996.96     0.2501085
     18997.13     0.2500394
     18997.32     0.2499623
      18997.5     0.2498852
     18997.69     0.2498081
     18997.88     0.2497309
     18998.07     0.2496917
     18998.25     0.2497213
     18998.44     0.2497511
     18998.63     0.2497811
     18998.82      0.249811
     18999.01     0.2498408
     18999.17     0.2498672
     18999.36     0.2498969
     18999.55     0.2499269
     18999.74     0.2499567
     18999.92     0.2499864
     19000.11     0.2500185
      19000.3     0.2500523
     19000.49      0.250086
     19000.67     0.2501198
     19000.86     0.2501535
     19001.05     0.2501876
     19001.22     0.2502174
      19001.4     0.2502511
     19001.59     0.2502848
     19001.78     0.2503185
     19001.97     0.2503526
     19002.16     0.2504417
     19002.34     0.2505417
     19002.53     0.2506419
     19002.72      0.250742
     19002.91      0.250842
     19003.09     0.2509422
     19003.28     0.2510433
     19003.47     0.2511435
     19003.66     0.2512435
     19003.85     0.2513437
     19004.03     0.2514151
     19004.22     0.2513537
     19004.39     0.2512986
     19004.58     0.2512371
     19004.76     0.2511756
     19004.95     0.2511141
     19005.14     0.2510527
     19005.33     0.2509905
     19005.52      0.250929
      19005.7     0.2508675
     19005.89     0.2508061
     19006.08     0.2507772
     19006.27     0.2507941
     19006.43     0.2508092
     19006.62      0.250826
     19006.81     0.2508428
       19007.     0.2508596
     19007.18     0.2508765
     19007.37     0.2508935
     19007.56     0.2509103
     19007.75     0.2509272
     19007.94      0.250944
     19008.12     0.2509291
     19008.31     0.2508978
     19008.48     0.2508696
     19008.67     0.2508382
     19008.85     0.2508068
     19009.04     0.2507753
     19009.23     0.2507435
     19009.42     0.2507121
     19009.61     0.2506807
     19009.79     0.2506493
     19009.98     0.2506178
     19010.17     0.2505769
     19010.36     0.2505355
     19010.52     0.2504987
     19010.71     0.2504572
      19010.9     0.2504153
     19011.09     0.2503737
     19011.28     0.2503323
     19011.46     0.2502908
     19011.65     0.2502493
     19011.84     0.2502078
     19012.03     0.2501715
     19012.21     0.2501679
      19012.4     0.2501644
     19012.57     0.2501612
     19012.76     0.2501577
     19012.95     0.2501542
     19013.13     0.2501507
     19013.32     0.2501471
     19013.51     0.2501436
      19013.7     0.2501401
     19013.88     0.2501366
     19014.07     0.2501056
     19014.26     0.2500311
     19014.45     0.2499558
     19014.64     0.2498813
     19014.82     0.2498067
     19015.01     0.2497323
      19015.2     0.2496578
     19015.39     0.2495824
     19015.58     0.2495079
     19015.74     0.2494419
     19015.93     0.2493673
     19016.12     0.2493459
     19016.31     0.2493561
     19016.49     0.2493663
     19016.68     0.2493765
     19016.87     0.2493869
     19017.06     0.2493971
     19017.25     0.2494073
     19017.43     0.2494175
     19017.62     0.2494277
     19017.79     0.2494369
     19017.98     0.2494471
     19018.16     0.2493375
     19018.35     0.2492094
     19018.54     0.2490827
     19018.73     0.2489559
     19018.92     0.2488292
      19019.1     0.2487024
     19019.29     0.2485744
     19019.48     0.2484477
     19019.67     0.2483209
     19019.84     0.2482074
     19020.02     0.2481037
     19020.21      0.248161
      19020.4     0.2482184
     19020.59     0.2482763
     19020.78     0.2483336
     19020.96      0.248391
     19021.15     0.2484483
     19021.34     0.2485063
     19021.53     0.2485637
     19021.71      0.248621
      19021.9     0.2486784
     19022.07     0.2486965
     19022.26     0.2486654
     19022.45     0.2486341
     19022.63     0.2486027
     19022.82     0.2485715
     19023.01     0.2485403
      19023.2      0.248509
     19023.39     0.2484776
     19023.57     0.2484464
     19023.76     0.2484152
     19023.95     0.2483841
     19024.14     0.2483762
      19024.3     0.2483771
     19024.51     0.2483782
     19024.68     0.2483789
     19024.89       0.24838
     19025.06     0.2483808
     19025.24     0.2483817
     19025.43     0.2483826
     19025.62     0.2483835
     19025.81     0.2483844
       19026.     0.2483854
     19026.19     0.2483521
     19026.37     0.2483184
     19026.56     0.2482848
     19026.75     0.2482511
     19026.94      0.248217
     19027.13     0.2481834
     19027.29     0.2481533
     19027.48     0.2481196
     19027.67     0.2480859
     19027.86     0.2480523
     19028.04     0.2480108
     19028.23      0.247946
     19028.42     0.2478814
     19028.61     0.2478166
      19028.8     0.2477512
     19028.98     0.2476865
     19029.17     0.2476218
     19029.34     0.2475638
     19029.53     0.2474991
     19029.71     0.2474343
      19029.9     0.2473689
     19030.09     0.2473394
     19030.28     0.2473466
     19030.47     0.2473537
     19030.66     0.2473609
     19030.84      0.247368
     19031.03     0.2473752
     19031.22     0.2473824
     19031.39     0.2473887
     19031.58      0.247396
     19031.76     0.2474032
     19031.95     0.2474104
     19032.14     0.2473658
     19032.33     0.2473022
     19032.52     0.2472393
      19032.7     0.2471764
     19032.89     0.2471129
     19033.08     0.2470502
     19033.27     0.2469873
     19033.44     0.2469309
     19033.62     0.2468681
     19033.81     0.2468052
       19034.     0.2467416
     19034.19     0.2467617
     19034.37     0.2467815
     19034.56     0.2468017
     19034.75     0.2468216
     19034.94     0.2468416
     19035.13     0.2468615
     19035.32     0.2468816
      19035.5     0.2469016
     19035.69     0.2469215
     19035.88     0.2469417
     19036.07     0.2469087
     19036.26     0.2467835
     19036.42     0.2466714
     19036.61     0.2465461
      19036.8     0.2464196
     19036.99     0.2462944
     19037.18     0.2461692
     19037.36      0.246044
     19037.55     0.2459175
     19037.74     0.2457922
     19037.93      0.245667
     19038.12     0.2455392
      19038.3     0.2454119
     19038.47     0.2452978
     19038.66     0.2451706
     19038.85     0.2450434
     19039.04     0.2449148
     19039.22     0.2447874
     19039.41       0.24466
      19039.6     0.2445315
     19039.79     0.2444043
     19039.98     0.2442769
     19040.17     0.2442864
     19040.35     0.2443151
     19040.54     0.2443439
     19040.71     0.2443696
      19040.9     0.2443983
     19041.09     0.2444274
     19041.27     0.2444561
     19041.46     0.2444848
     19041.65     0.2445138
     19041.84     0.2445426
     19042.03     0.2445413
     19042.21     0.2443464
      19042.4     0.2441535
     19042.59     0.2439607
     19042.76     0.2437879
     19042.95     0.2435951
     19043.13     0.2434001
     19043.32     0.2432073
     19043.51     0.2430144
      19043.7     0.2428195
     19043.89     0.2426267
     19044.07     0.2425125
     19044.26     0.2425189
     19044.45     0.2425251
     19044.64     0.2425313
     19044.81     0.2425368
     19044.99      0.242543
     19045.18     0.2425494
     19045.37     0.2425556
     19045.56     0.2425619
     19045.75     0.2425682
     19045.94     0.2425743
     19046.12     0.2425182
     19046.31     0.2424307
      19046.5     0.2423433
     19046.69     0.2422549
     19046.88     0.2421673
     19047.06     0.2420798
     19047.25     0.2419916
     19047.44     0.2419041
     19047.63     0.2418157
     19047.82     0.2417282
     19047.99     0.2416498
     19048.17     0.2415015
     19048.36     0.2413484
     19048.55     0.2411937
     19048.74     0.2410405
     19048.93     0.2408874
     19049.12     0.2407327
      19049.3     0.2405795
     19049.49     0.2404249
     19049.68     0.2402717
     19049.87     0.2401186
     19050.04     0.2399761
     19050.22     0.2397948
     19050.41     0.2396114
      19050.6     0.2394301
     19050.79     0.2392467
     19050.98     0.2390654
     19051.16      0.238884
     19051.35     0.2387007
     19051.54     0.2385193
     19051.73     0.2383379
     19051.92     0.2381546
     19052.09      0.238019
     19052.27     0.2378961
     19052.46     0.2377733
     19052.65     0.2376491
     19052.84     0.2375263
     19053.03     0.2374022
     19053.21     0.2372793
      19053.4     0.2371563
     19053.59     0.2370323
     19053.78     0.2369094
     19053.97     0.2367853
     19054.13     0.2366301
     19054.32      0.236441
     19054.51     0.2362536
      19054.7     0.2360662
     19054.89     0.2358769
     19055.08     0.2356895
     19055.27     0.2355004
     19055.45      0.235313
     19055.64     0.2351256
     19055.83     0.2349363
     19056.02     0.2347578
     19056.21     0.2346634
     19056.37     0.2345808
     19056.58     0.2344757
     19056.75     0.2343931
     19056.96      0.234289
     19057.15     0.2341946
     19057.31      0.234112
      19057.5     0.2340174
     19057.69     0.2339241
     19057.88     0.2338298
     19058.07     0.2336464
     19058.26     0.2333025
     19058.45     0.2329621
     19058.63     0.2326219
     19058.82      0.232278
     19059.01     0.2319377
      19059.2     0.2315938
     19059.37     0.2312925
     19059.55     0.2309486
     19059.74     0.2306083
     19059.93     0.2302643
     19060.12       0.22997
     19060.31     0.2296992
      19060.5     0.2294311
     19060.68     0.2291632
     19060.87     0.2288922
     19061.06     0.2286242
     19061.25     0.2283534
     19061.42     0.2281161
     19061.61     0.2278451
     19061.79     0.2275771
     19061.98     0.2273063
     19062.17     0.2268607
     19062.36      0.226392
     19062.55      0.225928
     19062.74     0.2254594
     19062.92     0.2249953
     19063.11     0.2245314
      19063.3     0.2240627
     19063.47     0.2236471
     19063.66      0.223183
     19063.85     0.2227145
     19064.03      0.222269
     19064.22     0.2219104
     19064.41      0.221548
      19064.6     0.2211894
     19064.79     0.2208271
     19064.97     0.2204684
     19065.16     0.2201061
     19065.35     0.2197474
     19065.52     0.2194262
     19065.71     0.2190674
      19065.9     0.2187051
     19066.08     0.2183387
     19066.27     0.2179589
     19066.46      0.217583
     19066.65     0.2172032
     19066.84     0.2168272
     19067.03     0.2164473
     19067.21     0.2160715
      19067.4     0.2156914
     19067.59     0.2153156
     19067.78     0.2149356
     19067.97     0.2145598
     19068.16     0.2141118
     19068.35     0.2136445
     19068.53     0.2131823
      19068.7     0.2127679
     19068.89     0.2123007
     19069.08     0.2118382
     19069.27     0.2113709
     19069.46     0.2109085
     19069.64     0.2104414
     19069.83     0.2099788
     19070.02     0.2095071
     19070.21     0.2090057
      19070.4     0.2084993
     19070.59      0.207998
     19070.75     0.2075488
     19070.94     0.2070474
     19071.13      0.206541
     19071.32     0.2060396
     19071.51      0.205533
      19071.7     0.2050316
     19071.88     0.2045251
     19072.07     0.2040324
     19072.26     0.2035484
     19072.45     0.2030696
     19072.64     0.2025858
      19072.8     0.2021618
     19072.99     0.2016778
     19073.18      0.201199
     19073.37     0.2007151
     19073.56     0.2002362
     19073.75     0.1997523
     19073.94     0.1992733
     19074.13     0.1987147
     19074.31     0.1981235
      19074.5     0.1975264
     19074.69     0.1969353
     19074.86     0.1964057
     19075.05     0.1958084
     19075.23     0.1952173
     19075.42     0.1946199
     19075.61     0.1940288
      19075.8     0.1934315
     19075.99     0.1928404
     19076.18     0.1921736
     19076.37      0.191509
     19076.55     0.1908376
     19076.74     0.1901732
     19076.93     0.1895018
      19077.1     0.1889064
     19077.29     0.1882419
     19077.48     0.1875705
     19077.66      0.186906
     19077.85     0.1862344
     19078.04      0.185562
     19078.23     0.1848533
     19078.42      0.184152
     19078.61     0.1834433
     19078.79      0.182742
     19078.98     0.1820333
     19079.17     0.1813319
     19079.36     0.1806233
     19079.55      0.179922
     19079.74     0.1792132
     19079.93     0.1785045
     19080.09     0.1778519
     19080.28     0.1770793
     19080.47     0.1763148
     19080.66     0.1755422
     19080.85     0.1747697
     19081.04     0.1740051
     19081.23     0.1732324
     19081.41     0.1724678
      19081.6     0.1716952
     19081.79     0.1709305
     19081.98     0.1701579
     19082.17     0.1693748
     19082.34     0.1686712
     19082.53     0.1678778
     19082.71     0.1670924
      19082.9      0.166299
     19083.09     0.1655136
     19083.28     0.1647201
     19083.47     0.1639348
     19083.66     0.1631412
     19083.85     0.1623477
     19084.03     0.1615409
     19084.22     0.1606255
     19084.39     0.1598233
     19084.58     0.1589078
     19084.77     0.1579923
     19084.96     0.1570862
     19085.14     0.1561707
     19085.33     0.1552646
     19085.52      0.154349
     19085.71      0.153443
      19085.9     0.1525273
     19086.09     0.1516898
     19086.28     0.1509252
     19086.44     0.1502473
     19086.63     0.1494906
     19086.82      0.148726
     19087.01     0.1479615
      19087.2     0.1472048
     19087.39     0.1464401
     19087.57     0.1456834
     19087.76     0.1449187
     19087.95      0.144162
     19088.14      0.143336
     19088.33     0.1424886
      19088.5     0.1417461
     19088.71     0.1408025
     19088.87     0.1400512
     19089.08     0.1391165
     19089.27     0.1382778
     19089.44     0.1375264
     19089.63      0.136679
     19089.82     0.1358402
     19090.01     0.1349981
      19090.2     0.1343229
     19090.38     0.1336545
     19090.57     0.1329793
     19090.76     0.1323109
     19090.95     0.1316357
     19091.14     0.1309604
     19091.33      0.130292
     19091.49     0.1296933
     19091.68     0.1290179
     19091.87     0.1283495
     19092.06     0.1276064
     19092.25     0.1267279
     19092.44     0.1258402
     19092.63     0.1249526
     19092.81     0.1240741
       19093.     0.1231864
     19093.19     0.1223078
     19093.38       0.12142
     19093.55     0.1206331
     19093.74     0.1197545
     19093.93     0.1188667
     19094.12     0.1180605
      19094.3     0.1173144
     19094.49     0.1165606
     19094.68     0.1158147
     19094.87     0.1150608
     19095.06      0.114307
     19095.25     0.1135609
     19095.44     0.1128072
     19095.63     0.1120533
     19095.79     0.1113927
     19095.98     0.1106388
     19096.17     0.1098241
     19096.36     0.1090108
     19096.55     0.1081891
     19096.73     0.1073758
     19096.92     0.1065541
     19097.11     0.1057323
      19097.3      0.104919
     19097.49     0.1040972
     19097.68     0.1032754
     19097.85     0.1025553
     19098.04     0.1017646
     19098.22     0.1011105
     19098.41     0.1004631
      19098.6    0.09980899
     19098.79    0.09915489
     19098.98    0.09850746
     19099.17    0.09785331
     19099.36    0.09719917
     19099.54    0.09655177
     19099.73    0.09589759
     19099.92    0.09525013
     19100.11    0.09457806
      19100.3    0.09389331
     19100.49    0.09321563
     19100.68    0.09253087
     19100.85    0.09192373
     19101.03    0.09124597
     19101.22    0.09056115
     19101.41    0.08987632
      19101.6    0.08919851
     19101.79     0.0885136
     19101.98    0.08782866
     19102.17    0.08717812
     19102.36    0.08652438
     19102.54    0.08587061
     19102.73    0.08522352
     19102.92    0.08456971
     19103.09    0.08399004
     19103.28    0.08334289
     19103.47    0.08268904
     19103.66    0.08203513
     19103.84    0.08138795
     19104.03     0.0807505
     19104.22    0.08019086
     19104.41    0.07963693
      19104.6     0.0790772
     19104.79    0.07851746
     19104.98    0.07796349
     19105.14     0.0774672
     19105.33    0.07690743
     19105.52    0.07634761
     19105.71    0.07579356
      19105.9    0.07523369
     19106.09    0.07463347
     19106.28    0.07399512
     19106.47    0.07335007
     19106.66    0.07270502
     19106.84    0.07206659
     19107.03     0.0714215
      19107.2    0.07084951
     19107.39     0.0702044
     19107.58    0.06956588
     19107.77    0.06892069
     19107.96    0.06827548
     19108.14    0.06773269
     19108.33    0.06721303
     19108.52    0.06669331
     19108.71    0.06617896
      19108.9    0.06565922
     19109.09    0.06513949
     19109.26    0.06467867
     19109.45    0.06416423
     19109.63    0.06364443
     19109.82     0.0631246
     19110.01    0.06260024
     19110.22    0.06184356
     19110.39    0.06124099
     19110.58    0.06056833
     19110.77    0.05988862
     19110.96    0.05920893
     19111.14    0.05853621
     19111.33    0.05785645
     19111.52    0.05717666
     19111.71    0.05649685
      19111.9    0.05582403
     19112.09    0.05523546
     19112.28    0.05474806
     19112.45    0.05431593
     19112.63    0.05383354
     19112.82    0.05334611
     19113.01    0.05285866
      19113.2    0.05237621
     19113.39    0.05188872
     19113.58    0.05140122
     19113.77    0.05091872
     19113.96     0.0504312
     19114.15    0.05000702
     19114.34    0.04960143
      19114.5     0.0492418
     19114.69    0.04884038
     19114.88    0.04843475
     19115.07    0.04802908
     19115.26     0.0476276
     19115.45    0.04722192
     19115.64    0.04681623
     19115.83    0.04641053
     19116.01     0.0460135
      19116.2    0.04567008
     19116.39    0.04532668
     19116.56    0.04502217
     19116.75    0.04468229
     19116.94    0.04433883
     19117.13    0.04399537
     19117.32    0.04365188
      19117.5    0.04331194
     19117.69    0.04296846
     19117.88    0.04262493
     19118.07    0.04230023
     19118.26    0.04199784
     19118.45    0.04169545
     19118.62    0.04142733
     19118.81    0.04112491
     19118.99    0.04082559
     19119.18    0.04052315
     19119.37    0.04022072
     19119.56    0.03992137
     19119.75    0.03961889
     19119.94    0.03931641
     19120.13    0.03907018
     19120.32    0.03885264
     19120.51    0.03863281
     19120.67    0.03843791
     19120.88    0.03819314
     19121.05    0.03799823
     19121.26    0.03775571
     19121.45    0.03753584
     19121.64    0.03731597
     19121.81    0.03712103
       19122.    0.03690341
     19122.19    0.03654835
     19122.37    0.03619044
     19122.56    0.03583249
     19122.75    0.03547822
     19122.94    0.03512027
     19123.13    0.03476229
     19123.32     0.0344043
     19123.51    0.03404999
      19123.7    0.03369199
     19123.87    0.03337457
     19124.05    0.03303561
     19124.24    0.03274368
     19124.43    0.03245476
     19124.62    0.03216283
     19124.81    0.03187086
       19125.     0.0315789
     19125.19    0.03128993
     19125.38    0.03099795
     19125.57    0.03070595
     19125.76    0.03041394
     19125.92    0.03015505
     19126.11    0.02986346
      19126.3    0.02956705
     19126.49    0.02927064
     19126.68     0.0289742
     19126.87    0.02867777
     19127.06    0.02838437
     19127.25    0.02808792
     19127.44    0.02779144
     19127.62    0.02749497
     19127.81    0.02720153
     19127.98    0.02693866
     19128.17    0.02675468
     19128.36    0.02658365
     19128.55    0.02641259
     19128.74    0.02624154
     19128.93    0.02607223
     19129.12    0.02590117
      19129.3     0.0257301
     19129.49    0.02555901
     19129.68    0.02538969
     19129.87    0.02521861
     19130.04    0.02504079
     19130.23    0.02474301
     19130.42    0.02444521
     19130.61     0.0241474
     19130.79    0.02385266
     19130.98    0.02355483
     19131.17      0.023257
     19131.36    0.02295915
     19131.55     0.0226613
     19131.74    0.02236651
     19131.93    0.02206863
     19132.12    0.02186484
     19132.31    0.02171656
      19132.5    0.02156829
     19132.69    0.02142153
     19132.87    0.02127324
     19133.06    0.02112495
     19133.23    0.02099347
     19133.42    0.02084518
     19133.61    0.02069686
      19133.8    0.02055009
     19133.99    0.02040177
     19134.18    0.02021486
     19134.37     0.0200254
     19134.56    0.01983592
     19134.74     0.0196484
     19134.93    0.01945893
     19135.12    0.01926944
     19135.29    0.01910144
     19135.48    0.01891194
     19135.67    0.01872243
     19135.86    0.01853291
     19136.05    0.01837269
     19136.24    0.01829364
     19136.43     0.0182146
     19136.62    0.01813554
      19136.8    0.01805649
     19136.99    0.01797743
     19137.18    0.01789918
     19137.35    0.01782908
     19137.54    0.01775002
     19137.73    0.01767095
     19137.92    0.01759188
     19138.11    0.01749057
      19138.3    0.01737226
     19138.48    0.01725518
     19138.67    0.01713687
     19138.86    0.01701856
     19139.05    0.01690024
     19139.24    0.01678192
     19139.43     0.0166636
      19139.6    0.01655868
     19139.79    0.01644157
     19139.98    0.01632324
     19140.17    0.01612449
     19140.36     0.0159144
     19140.54    0.01570429
     19140.73    0.01549418
     19140.92    0.01528623
     19141.11     0.0150761
      19141.3    0.01486597
     19141.49    0.01465583
     19141.66    0.01446951
     19141.85    0.01425936
     19142.04    0.01407356
     19142.23    0.01398777
     19142.44    0.01389314
      19142.6    0.01381708
     19142.79    0.01373129
     19142.98    0.01364549
     19143.17     0.0135597
     19143.36    0.01347389
     19143.55    0.01338809
     19143.74    0.01330316
     19143.93    0.01321736
     19144.12    0.01316262
     19144.31    0.01312706
      19144.5    0.01309149
     19144.66    0.01305995
     19144.85    0.01302439
     19145.04    0.01298882
     19145.23    0.01295324
     19145.42    0.01291804
     19145.61    0.01288246
      19145.8    0.01284689
     19145.99    0.01281131
     19146.18    0.01271618
     19146.37    0.01261713
     19146.56    0.01251806
     19146.72    0.01243023
     19146.91    0.01233116
      19147.1     0.0122331
     19147.29    0.01213403
     19147.48    0.01203495
     19147.67    0.01193587
     19147.86    0.01183678
     19148.05    0.01172579
     19148.24    0.01158052
     19148.43    0.01143524
     19148.62    0.01129147
     19148.79    0.01116116
     19148.97    0.01101737
     19149.16    0.01087207
     19149.35    0.01072677
     19149.54    0.01058147
     19149.73    0.01043616
     19149.92    0.01029085
     19150.11    0.01018749
      19150.3    0.01011485
     19150.49    0.01004222
     19150.68    0.00997032
     19150.85   0.009905166
     19151.03   0.009833266
     19151.22   0.009760615
     19151.41   0.009687964
      19151.6   0.009615311
     19151.79    0.00954265
     19151.98   0.009469995
     19152.17   0.009414229
     19152.36   0.009360414
     19152.55   0.009306593
     19152.74   0.009252771
     19152.93   0.009199504
     19153.12    0.00914568
      19153.3   0.009091847
     19153.49   0.009038023
     19153.68   0.008984188
     19153.87   0.008930355
     19154.04   0.008886203
     19154.23   0.008848888
     19154.42   0.008811575
     19154.61   0.008774256
      19154.8   0.008736938
     19154.99    0.00869962
     19155.18   0.008662305
     19155.37   0.008625362
     19155.55    0.00858804
     19155.74   0.008550716
     19155.93   0.008513394
      19156.1   0.008422684
     19156.29   0.008277887
     19156.48   0.008133076
     19156.67   0.007988269
     19156.86   0.007843452
     19157.05   0.007698632
     19157.24   0.007553804
     19157.43   0.007408973
     19157.62    0.00726414
     19157.81   0.007119294
       19158.   0.006974448
     19158.19    0.00691078
     19158.35   0.006855848
     19158.54   0.006793881
     19158.73   0.006731916
     19158.92   0.006670587
     19159.11   0.006608617
      19159.3   0.006546641
     19159.49   0.006484671
     19159.68   0.006422691
     19159.87   0.006360713
     19160.06   0.006312198
     19160.25    0.00629526
     19160.41    0.00628024
      19160.6   0.006263298
     19160.79   0.006246358
     19160.98   0.006229411
     19161.17   0.006212472
     19161.36   0.006195527
     19161.55   0.006178581
     19161.74   0.006161636
     19161.93   0.006144694
     19162.12   0.006141599
     19162.31    0.00614669
     19162.48   0.006151199
     19162.67   0.006156289
     19162.86   0.006161377
     19163.04   0.006166464
     19163.23   0.006171554
     19163.42   0.006176644
     19163.61   0.006181733
      19163.8   0.006186816
     19163.99   0.006191857
     19164.18   0.006151103
     19164.37   0.006107855
     19164.56   0.006064605
     19164.75   0.006021354
     19164.94   0.005978104
     19165.13   0.005934852
     19165.32   0.005891594
     19165.51    0.00584834
     19165.67   0.005809984
     19165.86   0.005766726
     19166.05   0.005719251
     19166.24   0.005660857
     19166.43   0.005602457
     19166.62   0.005544054
     19166.81   0.005485652
       19167.   0.005427245
     19167.19   0.005368841
     19167.38    0.00531043
     19167.57   0.005252021
     19167.74    0.00520023
     19167.93   0.005141815
     19168.12   0.005107454
      19168.3   0.005088589
     19168.49   0.005069722
     19168.68   0.005050854
     19168.87   0.005031985
     19169.06   0.005013117
     19169.25   0.004994247
     19169.44   0.004975376
     19169.63   0.004956506
      19169.8   0.004939774
     19169.99     0.0049209
     19170.18   0.004927924
     19170.37   0.004936652
     19170.56   0.004945382
     19170.75   0.004954113
     19170.94   0.004962843
     19171.13   0.004971572
     19171.31   0.004980306
      19171.5   0.004989037
     19171.69   0.004997769
     19171.86   0.005005511
     19172.05   0.005004782
     19172.24   0.004978233
     19172.43   0.004951684
     19172.62   0.004925132
     19172.81    0.00489858
       19173.   0.004872027
     19173.19   0.004845473
     19173.38   0.004818919
     19173.57   0.004792362
     19173.76   0.004765805
     19173.93   0.004741985
     19174.12   0.004695751
      19174.3   0.004636839
     19174.49   0.004577926
     19174.71   0.004512331
     19174.89   0.004453415
     19175.06   0.004401175
     19175.25   0.004342253
     19175.44   0.004283332
     19175.63   0.004224408
     19175.82   0.004165481
     19176.01    0.00410625
      19176.2   0.004041494
     19176.39   0.003976734
     19176.58   0.003911973
     19176.77   0.003847208
     19176.96   0.003782442
     19177.13   0.003725021
     19177.31   0.003660249
      19177.5   0.003595476
     19177.69   0.003530701
     19177.88   0.003465925
     19178.07   0.003423341
     19178.26   0.003416752
     19178.45   0.003410158
     19178.64    0.00340357
     19178.83   0.003396977
     19179.02   0.003390317
     19179.19   0.003384474
     19179.38   0.003377882
     19179.57    0.00337129
     19179.76   0.003364696
     19179.95   0.003358105
     19180.14   0.003368056
     19180.33   0.003384389
     19180.52   0.003400724
     19180.71    0.00341706
     19180.89   0.003433396
     19181.08   0.003449732
     19181.25   0.003464217
     19181.44   0.003480554
     19181.63   0.003497061
     19181.82   0.003513399
     19182.01   0.003525726
      19182.2    0.00347719
     19182.39   0.003428655
     19182.58   0.003380116
     19182.77   0.003331577
     19182.96   0.003283036
     19183.15   0.003234492
     19183.32   0.003191452
     19183.51   0.003142905
      19183.7   0.003094357
     19183.88   0.003045808
     19184.07   0.003006968
     19184.26   0.002983202
     19184.46   0.002959192
     19184.64   0.002935424
     19184.83   0.002911658
     19185.02   0.002887888
     19185.21   0.002864119
      19185.4    0.00284035
     19185.59   0.002816578
     19185.78   0.002792808
     19185.97   0.002769034
     19186.16   0.002744578
     19186.35   0.002719995
     19186.52   0.002698198
     19186.71   0.002673361
      19186.9   0.002648775
     19187.09   0.002624189
     19187.28   0.002599602
     19187.47   0.002575015
     19187.66   0.002550425
     19187.85   0.002525836
     19188.04   0.002504333
     19188.22    0.00249638
     19188.41   0.002488427
     19188.58   0.002481293
     19188.77   0.002473338
     19188.96   0.002465383
     19189.15    0.00245743
     19189.34   0.002449474
     19189.53   0.002441519
     19189.72   0.002433564
     19189.91   0.002425607
      19190.1   0.002375737
     19190.29   0.002288057
     19190.48   0.002200376
     19190.65   0.002121731
     19190.84   0.002034044
     19191.03   0.001946353
     19191.22    0.00185866
     19191.41   0.001770964
      19191.6   0.001683265
     19191.79   0.001595563
     19191.97   0.001507858
     19192.17   0.001518696
     19192.36   0.001544477
     19192.54   0.001570261
     19192.71   0.001593121
      19192.9   0.001618906
     19193.09   0.001644692
     19193.28   0.001670479
     19193.47   0.001696266
     19193.66    0.00172232
     19193.85   0.001748109
     19194.04   0.001749526
     19194.23    0.00166274
     19194.42    0.00157595
     19194.61   0.001489158
      19194.8   0.001402362
     19194.97   0.001324512
     19195.16    0.00123771
     19195.35   0.001150907
     19195.54     0.0010641
     19195.73   9.772901E-4
     19195.92   8.904771E-4
     19196.11   8.615277E-4
     19196.29   8.786575E-4
     19196.48   8.957877E-4
     19196.68   9.130957E-4
     19196.87   9.302266E-4
     19197.05   9.473588E-4
     19197.24   9.644913E-4
     19197.43   9.816241E-4
     19197.62   9.987580E-4
     19197.81   0.001015892
     19197.98   0.001031261
     19198.17   0.001175757
     19198.36   0.001333284
     19198.55   0.001490816
     19198.74   0.001648354
     19198.93   0.001805897
     19199.12   0.001965069
     19199.31   0.002122623
      19199.5   0.002280182
     19199.69   0.002437746
     19199.88   0.002595316
     19200.05   0.002701948
     19200.24   0.002726095
     19200.43   0.002749995
     19200.62   0.002773897
     19200.81   0.002797798
       19201.     0.0028217
     19201.19   0.002845601
     19201.38   0.002869504
     19201.57   0.002893653
     19201.76   0.002917555
     19201.95   0.002941458
     19202.11   0.002878435
      19202.3   0.002761497
     19202.49   0.002643352
     19202.68   0.002526411
     19202.87   0.002409469
     19203.06   0.002292526
     19203.25   0.002175583
     19203.44   0.002058638
     19203.63   0.001941692
     19203.82   0.001823539
     19204.01   0.001715348
     19204.18   0.001737181
     19204.37   0.001761806
     19204.56   0.001786432
     19204.75   0.001811312
     19204.94    0.00183594
     19205.13   0.001860566
     19205.32   0.001885192
     19205.51   0.001909819
      19205.7   0.001934447
     19205.89   0.001959329
     19206.08   0.001943786
     19206.25   0.001879256
     19206.44   0.001806471
     19206.63   0.001732934
     19206.82   0.001660147
     19207.03   0.001579106
     19207.22   0.001506318
     19207.38   0.001441784
     19207.57   0.001368994
     19207.77   0.001295454
     19207.96   0.001222663
     19208.14   0.001214551
     19208.33   0.001226542
     19208.52   0.001238533
     19208.71   0.001250524
      19208.9   0.001262638
     19209.09    0.00127463
     19209.28   0.001286622
     19209.45   0.001297253
     19209.64   0.001309369
     19209.83    0.00132136
     19210.02   0.001330905
     19210.21    0.00132131
      19210.4   0.001311716
     19210.59   0.001302023
     19210.78   0.001292429
     19210.97   0.001282834
     19211.16   0.001273239
     19211.35   0.001263645
     19211.52   0.001255039
     19211.71   0.001245445
      19211.9    0.00123585
     19212.09   0.001233913
     19212.28   0.001240897
     19212.47   0.001247809
     19212.66   0.001254722
     19212.85   0.001261634
     19213.04   0.001268546
     19213.23    0.00127553
     19213.42   0.001282444
     19213.61   0.001289356
     19213.78   0.001295485
     19213.97   0.001302469
     19214.16   0.001171082
     19214.35   0.001010304
     19214.54   8.495243E-4
     19214.72   6.887437E-4
     19214.92   5.263039E-4
     19215.11   3.655201E-4
     19215.29   2.047351E-4
     19215.48   4.394842E-5
     19215.68            0.
     19215.84            0.
     19216.03            0.
     19216.22            0.
     19216.41            0.
      19216.6            0.
     19216.79            0.
     19216.98            0.
     19217.17   7.207184E-5
     19217.36   1.472430E-4
     19217.55   2.224147E-4
     19217.74   2.975873E-4
     19217.93   3.727605E-4
     19218.12   4.607701E-4
     19218.31   5.545146E-4
      19218.5   6.482601E-4
     19218.69   7.420062E-4
     19218.86   8.260889E-4
     19219.05   9.198364E-4
     19219.24   0.001013585
     19219.43   0.001108301
     19219.62   0.001202052
     19219.81   0.001295803
       19220.   0.001389555
     19220.19   0.001375441
     19220.38   0.001361471
     19220.57     0.0013475
     19220.76   0.001333529
     19220.95   0.001319558
     19221.12   0.001307028
     19221.31   0.001293056
      19221.5   0.001279086
     19221.69   0.001264971
     19221.88   0.001250999
     19222.07   0.001240823
     19222.26   0.001237371
     19222.45   0.001233883
     19222.64    0.00123043
     19222.83   0.001226977
     19223.02   0.001223525
     19223.19   0.001220428
     19223.38   0.001216976
     19223.57   0.001213523
     19223.76   0.001210035
     19223.95   0.001206582
     19224.14   0.001200206
     19224.33   0.001192702
     19224.52   0.001185121
     19224.71   0.001177617
      19224.9   0.001170113
     19225.09   0.001162531
     19225.26   0.001155878
     19225.45   0.001148374
     19225.64   0.001140792
     19225.83   0.001133288
     19226.02   0.001120504
     19226.21   0.001048986
      19226.4   9.767286E-4
     19226.59   9.052084E-4
     19226.78   8.336878E-4
     19226.96   7.621665E-4
     19227.16   6.899069E-4
     19227.32   6.264952E-4
     19227.51   5.549720E-4
     19227.71   4.827107E-4
     19227.89   4.111862E-4
     19228.08   3.955313E-4
     19228.28   4.506013E-4
     19228.46   5.051100E-4
     19228.65   5.596189E-4
     19228.84   6.141287E-4
     19229.04   6.692007E-4
     19229.22   7.237113E-4
     19229.41   7.782224E-4
     19229.61   8.332957E-4
     19229.79   8.878082E-4
     19229.98   9.423206E-4
     19230.17   9.224419E-4
     19230.37   8.956023E-4
     19230.53   8.720494E-4
     19230.72   8.452095E-4
     19230.91   8.186436E-4
      19231.1   7.920768E-4
     19231.29   7.655100E-4
     19231.48   7.386690E-4
     19231.67   7.121019E-4
     19231.86   6.855345E-4
     19232.05   6.746057E-4
     19232.24   7.031655E-4
     19232.43   7.317258E-4
      19232.6   7.573415E-4
     19232.79   7.859023E-4
     19232.98   8.144632E-4
     19233.17   8.433184E-4
     19233.36   8.718800E-4
     19233.55   9.004415E-4
     19233.74   9.292979E-4
     19233.93   9.578599E-4
     19234.12   9.528829E-4
     19234.31   9.295672E-4
      19234.5   9.064892E-4
     19234.67   8.860279E-4
     19234.86   8.627117E-4
     19235.05   8.396331E-4
     19235.24   8.165542E-4
     19235.43   7.932374E-4
     19235.62   7.701581E-4
     19235.81   7.470784E-4
       19236.   7.245325E-4
     19236.19   7.388832E-4
     19236.38   7.532334E-4
     19236.57   7.677320E-4
     19236.74   7.804553E-4
     19236.93   7.948062E-4
     19237.12   8.093051E-4
     19237.31   8.236562E-4
      19237.5   8.380073E-4
     19237.69   8.525067E-4
     19237.88   8.668581E-4
     19238.07   8.703720E-4
     19238.26   8.561651E-4
     19238.45   8.421036E-4
     19238.64   8.280417E-4
     19238.81   8.154297E-4
       19239.   8.013675E-4
     19239.21   7.857106E-4
      19239.4   7.715034E-4
     19239.59   7.574409E-4
     19239.78   7.433784E-4
     19239.95   7.307653E-4
     19240.14   7.377046E-4
     19240.33   7.516918E-4
     19240.52   7.655361E-4
     19240.71   7.793806E-4
      19240.9   7.933677E-4
     19241.09   8.072128E-4
     19241.28   8.210576E-4
     19241.47   8.350453E-4
     19241.66   8.488904E-4
     19241.85   8.627358E-4
     19242.02   8.704563E-4
     19242.21   8.463303E-4
      19242.4   8.219551E-4
     19242.59   7.978284E-4
     19242.78   7.737014E-4
     19242.97   7.493258E-4
     19243.16   7.251985E-4
     19243.35   7.010712E-4
     19243.54   6.766947E-4
     19243.73   6.525666E-4
     19243.93   6.281900E-4
     19244.09   5.993493E-4
     19244.28   5.601693E-4
     19244.47   5.205848E-4
     19244.66   4.814038E-4
     19244.86   4.418186E-4
     19245.04   4.026370E-4
     19245.23   3.634549E-4
     19245.43   3.238686E-4
     19245.62   2.846859E-4
      19245.8   2.455028E-4
       19246.   2.059154E-4
     19246.16   2.090645E-4
     19246.36   2.136810E-4
     19246.54   2.182506E-4
     19246.73   2.228202E-4
     19246.93   2.274369E-4
     19247.12   2.320066E-4
     19247.31   2.366234E-4
      19247.5   2.411931E-4
     19247.69   2.457629E-4
     19247.88   2.503799E-4
     19248.07   2.600146E-4
     19248.24   2.770733E-4
     19248.43   2.960931E-4
     19248.62   3.151128E-4
     19248.81   3.343290E-4
       19249.   3.533491E-4
     19249.19   3.725656E-4
     19249.38   3.915862E-4
     19249.57   4.106069E-4
     19249.76   4.298238E-4
     19249.95   4.488451E-4
     19250.14   4.438050E-4
     19250.33   4.296858E-4
     19250.52   4.155665E-4
     19250.71   4.013014E-4
      19250.9   3.871818E-4
     19251.09   3.729165E-4
     19251.28   3.587964E-4
     19251.45   3.462778E-4
     19251.64   3.320121E-4
     19251.83   3.178917E-4
     19252.02   3.021005E-4
     19252.21   2.731844E-4
      19252.4   2.439698E-4
     19252.59   2.150532E-4
     19252.78   1.861361E-4
     19252.97   1.569208E-4
     19253.16   1.280032E-4
     19253.35   9.878725E-5
     19253.52   7.314852E-5
     19253.71   4.393201E-5
      19253.9   1.501335E-5
     19254.09   2.551099E-5
     19254.28   8.026866E-5
     19254.47   1.344682E-4
     19254.66   1.892270E-4
     19254.85   2.434275E-4
     19255.04   2.976285E-4
     19255.23   3.523891E-4
     19255.42   4.065913E-4
     19255.59   4.552061E-4
     19255.78   5.094091E-4
     19255.97   5.641716E-4
     19256.16   5.747550E-4
     19256.35   5.780135E-4
     19256.54   5.812390E-4
     19256.73   5.844645E-4
     19256.92   5.877234E-4
     19257.11   5.909487E-4
      19257.3   5.942078E-4
     19257.49   5.974335E-4
     19257.66   6.003263E-4
     19257.85   6.035521E-4
     19258.04   5.977936E-4
     19258.23   5.629885E-4
     19258.42   5.281828E-4
     19258.62   4.930182E-4
      19258.8   4.582121E-4
       19259.   4.230465E-4
     19259.19   3.882396E-4
     19259.38   3.530737E-4
     19259.57   3.182660E-4
     19259.74   2.870466E-4
     19259.93   2.522384E-4
     19260.12   2.474070E-4
     19260.31   2.616422E-4
      19260.5   2.760242E-4
     19260.69   2.902596E-4
     19260.88   3.044950E-4
     19261.07   3.188774E-4
     19261.26   3.331133E-4
     19261.45   3.474960E-4
     19261.64   3.617319E-4
     19261.83   3.761149E-4
     19262.02   3.872837E-4
     19262.21   3.716061E-4
      19262.4   3.560881E-4
     19262.59   3.405702E-4
     19262.78   3.248919E-4
     19262.95   3.109734E-4
     19263.14   2.954549E-4
     19263.33   2.799362E-4
     19263.52   2.642575E-4
     19263.71   2.487386E-4
      19263.9   2.330593E-4
     19264.09   1.893839E-4
     19264.28   1.149955E-4
     19264.47   4.136531E-5
     19264.66            0.
     19264.85            0.
     19265.02            0.
     19265.21            0.
      19265.4            0.
     19265.59            0.
     19265.79            0.
     19265.97            0.
     19266.17            0.
     19266.36            0.
     19266.55            0.
     19266.74            0.
     19266.93            0.
      19267.1            0.
     19267.29            0.
     19267.48            0.
     19267.67            0.
     19267.86            0.
     19268.05            0.
     19268.24            0.
     19268.43            0.
     19268.62            0.
     19268.81            0.
       19269.            0.
     19269.17            0.
     19269.36            0.
     19269.55   8.851760E-6
     19269.74   1.429688E-4
     19269.93   2.784698E-4
     19270.12   3.663248E-4
     19270.31   4.286996E-4
      19270.5   4.904386E-4
     19270.69   5.528149E-4
     19270.88   6.145549E-4
     19271.07   6.769325E-4
     19271.26   7.386740E-4
     19271.43   7.940505E-4
     19271.64   8.627948E-4
     19271.84   9.251750E-4
     19272.03   9.711567E-4
     19272.22   9.147130E-4
     19272.38   8.651806E-4
     19272.58   8.087359E-4
     19272.77   7.528669E-4
     19272.96   6.964211E-4
     19273.15   6.405513E-4
     19273.34   5.841041E-4
     19273.53   5.282329E-4
     19273.72   4.717852E-4
     19273.91   4.159127E-4
      19274.1   4.355710E-4
     19274.29   5.244515E-4
     19274.46   6.041699E-4
     19274.65   6.939688E-4
     19274.84   7.828516E-4
     19275.03   8.726519E-4
     19275.22   9.615366E-4
     19275.41   0.001051339
      19275.6   0.001140226
     19275.79    0.00123003
     19275.98   0.001318918
     19276.17   0.001252994
     19276.36   0.001172154
     19276.55    0.00109048
     19276.72   0.001017973
     19276.91   9.371310E-4
     19277.11   8.554547E-4
     19277.29   7.746110E-4
     19277.49   6.929330E-4
     19277.68   6.120882E-4
     19277.87   5.304086E-4
     19278.06   4.604696E-4
     19278.25   4.156500E-4
     19278.44   3.712871E-4
     19278.63   3.264663E-4
      19278.8   2.866761E-4
     19278.99   2.423119E-4
     19279.18   1.974900E-4
     19279.37   1.531249E-4
     19279.56   1.083021E-4
     19279.75   6.393615E-5
     19279.94   1.911240E-5
     19280.13   5.023735E-6
     19280.32   4.486892E-6
     19280.51   3.950045E-6
      19280.7   3.418669E-6
     19280.87   2.942071E-6
     19281.06   2.410686E-6
     19281.25   1.873816E-6
     19281.44   1.342421E-6
     19281.63   8.055424E-7
     19281.83   2.686581E-7
     19282.02            0.
     19282.21            0.
      19282.4            0.
     19282.59            0.
     19282.78            0.
     19282.97            0.
     19283.16            0.
     19283.35            0.
     19283.54            0.
     19283.73            0.
     19283.92            0.
     19284.09            0.
     19284.28            0.
     19284.47            0.
     19284.66            0.
     19284.85            0.
     19285.04   5.114668E-5
     19285.23   1.701162E-4
     19285.42   2.878729E-4
     19285.62   4.068445E-4
     19285.81   5.258177E-4
       19286.   6.435775E-4
     19286.17   5.924710E-4
     19286.36   5.313782E-4
     19286.55   4.696545E-4
     19286.74   4.079306E-4
     19286.93   3.468357E-4
     19287.12   2.851103E-4
     19287.31   2.240143E-4
      19287.5   1.622877E-4
     19287.69   1.005606E-4
     19287.88   3.946274E-5
     19288.07            0.
     19288.24            0.
     19288.43            0.
     19288.62            0.
     19288.81            0.
       19289.            0.
     19289.19            0.
     19289.38            0.
     19289.58            0.
     19289.77            0.
     19289.96            0.
     19290.15            0.
     19290.32            0.
     19290.51            0.
      19290.7            0.
     19290.89            0.
     19291.08            0.
     19291.27            0.
     19291.46            0.
     19291.65            0.
     19291.84            0.
     19292.03            0.
     19292.22            0.
     19292.39            0.
     19292.58            0.
     19292.77            0.
     19292.99            0.
     19293.15            0.
     19293.35            0.
     19293.54            0.
     19293.73            0.
     19293.92            0.
     19294.11            0.
      19294.3            0.
     19294.49            0.
     19294.68            0.
     19294.87            0.
     19295.06   3.411221E-6
     19295.25   1.367591E-5
     19295.44   2.394071E-5
     19295.61   3.305342E-5
      19295.8   4.321365E-5
     19295.99   5.347870E-5
     19296.18   1.388925E-5
     19296.38            0.
     19296.57            0.
     19296.76            0.
     19296.95            0.
     19297.14            0.
     19297.33            0.
     19297.52            0.
     19297.69            0.
     19297.88            0.
     19298.07            0.
     19298.26            0.
     19298.45            0.
     19298.64            0.
     19298.83            0.
     19299.02            0.
     19299.21            0.
      19299.4            0.
      19299.6            0.
     19299.77            0.
     19299.96            0.
     19300.15            0.
     19300.34            0.
     19300.53            0.
     19300.72            0.
     19300.91            0.
      19301.1            0.
     19301.29            0.
     19301.48            0.
     19301.67            0.
     19301.84            0.
     19302.03            0.
     19302.22            0.
     19302.41            0.
     19302.61            0.
     19302.79            0.
     19302.99   5.602374E-5
     19303.18   1.818820E-4
     19303.37   3.064568E-4
     19303.56   4.323169E-4
     19303.75   5.581778E-4
     19303.92   6.686278E-4
     19304.13   6.505313E-4
     19304.32   5.451616E-4
     19304.51   4.408665E-4
      19304.7   3.354956E-4
     19304.89   2.301239E-4
     19305.06   1.365791E-4
     19305.25   3.228120E-5
     19305.45            0.
     19305.64            0.
     19305.83            0.
     19306.02            0.
     19306.21            0.
      19306.4            0.
     19306.59            0.
     19306.78            0.
     19306.97            0.
     19307.14            0.
     19307.33            0.
     19307.52            0.
     19307.71            0.
      19307.9            0.
      19308.1            0.
     19308.29            0.
     19308.48            0.
     19308.67            0.
     19308.86            0.
     19309.05            0.
     19309.22   6.613224E-5
     19309.41   1.860195E-4
      19309.6   3.046840E-4
     19309.79   4.245731E-4
     19309.98   5.444628E-4
     19310.17   4.940051E-4
     19310.36   4.255516E-4
     19310.55   3.570975E-4
     19310.74   2.893416E-4
     19310.94   2.208866E-4
     19311.13   1.524312E-4
      19311.3   9.165909E-5
     19311.49   2.390125E-5
     19311.68            0.
     19311.87            0.
     19312.06            0.
     19312.25            0.
     19312.44            0.
     19312.63   2.501813E-5
     19312.82   8.035498E-5
     19313.01   1.362628E-4
     19313.21   1.921709E-4
     19313.38   2.418040E-4
     19313.56   2.971424E-4
     19313.76   3.530516E-4
     19313.95   4.089613E-4
     19314.14   3.305480E-4
     19314.33   1.992032E-4
     19314.52   6.785757E-5
     19314.71            0.
      19314.9            0.
     19315.09            0.
     19315.28            0.
     19315.47            0.
     19315.66            0.
     19315.86            0.
     19316.05            0.
     19316.24            0.
     19316.43            0.
      19316.6            0.
     19316.79            0.
     19316.98            0.
     19317.17            0.
     19317.36            0.
     19317.55            0.
     19317.74            0.
     19317.93            0.
     19318.13   2.751935E-5
     19318.32   3.543773E-5
     19318.51   4.327537E-5
     19318.68   5.030506E-5
     19318.87   5.822359E-5
     19319.06   6.614220E-5
     19319.25   7.398006E-5
     19319.44   8.189877E-5
     19319.63   8.981753E-5
     19319.82   9.773640E-5
     19320.01   1.029439E-4
      19320.2   6.789654E-5
     19320.39   3.284893E-5
     19320.59            0.
     19320.76            0.
     19320.95            0.
     19321.14            0.
     19321.33            0.
     19321.52            0.
     19321.71            0.
      19321.9            0.
     19322.09            0.
     19322.28            0.
     19322.47            0.
     19322.66            0.
     19322.83            0.
     19323.03            0.
     19323.22            0.
     19323.41            0.
      19323.6            0.
     19323.79            0.
     19323.98            0.
     19324.17            0.
     19324.36            0.
     19324.55            0.
     19324.74   6.965439E-5
     19324.91   2.408500E-4
      19325.1   4.317243E-4
     19325.29   6.245681E-4
     19325.51   8.390588E-4
     19325.68   0.001010259
     19325.89   0.001222785
     19326.06   0.001304331
     19326.25   0.001204301
     19326.44   0.001104269
     19326.63   0.001004238
     19326.82   9.052257E-4
     19327.01   8.051923E-4
     19327.21   7.051584E-4
      19327.4   6.051236E-4
     19327.59   5.050881E-4
     19327.78   4.060728E-4
     19327.97   3.060359E-4
     19328.14   2.998652E-4
     19328.33   3.138916E-4
     19328.52   3.279182E-4
     19328.71   3.418016E-4
      19328.9   3.558284E-4
     19329.09   3.698553E-4
     19329.29   3.838821E-4
     19329.48   3.979092E-4
     19329.67   4.117932E-4
     19329.86   4.258203E-4
     19330.05   4.161025E-4
     19330.22   3.459213E-4
     19330.41   2.668662E-4
      19330.6   1.886171E-4
     19330.79   1.095610E-4
     19330.98   3.050417E-5
     19331.17            0.
     19331.37            0.
     19331.55            0.
     19331.75            0.
     19331.94            0.
     19332.13            0.
      19332.3            0.
     19332.49            0.
     19332.68            0.
     19332.87            0.
     19333.06            0.
     19333.25            0.
     19333.45            0.
     19333.64            0.
     19333.83            0.
     19334.02            0.
     19334.21            0.
      19334.4            0.
     19334.57            0.
     19334.76            0.
     19334.95            0.
     19335.14            0.
     19335.33            0.
     19335.53            0.
     19335.72            0.
     19335.91            0.
      19336.1            0.
     19336.29            0.
     19336.48            0.
     19336.67            0.
     19336.86            0.
     19337.05            0.
     19337.24            0.
     19337.44            0.
     19337.61            0.
      19337.8            0.
     19337.99            0.
     19338.18            0.
     19338.37            0.
     19338.56            0.
     19338.75            0.
     19338.94   2.582281E-5
     19339.13   6.392180E-5
     19339.33   1.020210E-4
     19339.52   1.401206E-4
     19339.71   1.778316E-4
     19339.88   2.116551E-4
     19340.07   2.600604E-4
     19340.26   3.270152E-4
     19340.45   3.939701E-4
     19340.64   4.609257E-4
     19340.83   5.278818E-4
     19341.02   5.941552E-4
     19341.21   6.611119E-4
     19341.41   7.280696E-4
      19341.6   7.950276E-4
     19341.79   8.619856E-4
     19341.96   9.214287E-4
     19342.15   8.071354E-4
     19342.34   6.434080E-4
     19342.53   4.813503E-4
     19342.72   3.176208E-4
     19342.91   1.538902E-4
     19343.11            0.
      19343.3            0.
     19343.49            0.
     19343.68            0.
     19343.87            0.
     19344.04            0.
     19344.23            0.
     19344.42            0.
     19344.61            0.
      19344.8            0.
       19345.            0.
     19345.19            0.
     19345.38            0.
     19345.57            0.
     19345.76            0.
     19345.95            0.
     19346.12            0.
     19346.31            0.
      19346.5            0.
      19346.7            0.
     19346.89            0.
     19347.08            0.
     19347.27            0.
     19347.46            0.
     19347.65            0.
     19347.84            0.
     19348.03   1.145075E-7
     19348.22            0.
     19348.42            0.
     19348.61            0.
      19348.8            0.
     19348.99            0.
     19349.16            0.
     19349.35            0.
     19349.54            0.
     19349.73            0.
     19349.92            0.
     19350.12            0.
     19350.31            0.
      19350.5            0.
     19350.69            0.
     19350.88            0.
     19351.07            0.
     19351.24            0.
     19351.43            0.
     19351.62            0.
     19351.81            0.
     19352.01            0.
      19352.2            0.
     19352.39            0.
     19352.58            0.
     19352.77            0.
     19352.96            0.
     19353.15            0.
     19353.35            0.
     19353.52            0.
     19353.71            0.
      19353.9            0.
     19354.09            0.
     19354.28            0.
     19354.47            0.
     19354.66            0.
     19354.85   4.014791E-6
     19355.04   2.353162E-4
     19355.24   4.666190E-4
     19355.43   6.979235E-4
      19355.6   9.032668E-4
     19355.79   0.001134575
     19355.98   0.001365884
     19356.17   0.001242109
     19356.36   0.001077982
     19356.55   9.138528E-4
     19356.75   7.497233E-4
     19356.94   5.872679E-4
     19357.13   4.231359E-4
     19357.32   2.590033E-4
     19357.51   9.486929E-5
     19357.68            0.
     19357.87            0.
     19358.08            0.
     19358.25            0.
     19358.47            0.
     19358.66            0.
     19358.83            0.
     19359.02            0.
     19359.21            0.
      19359.4            0.
     19359.59            0.
     19359.79            0.
     19359.98            0.
     19360.17            0.
     19360.36            0.
     19360.55            0.
     19360.74            0.
     19360.91            0.
      19361.1            0.
     19361.29   1.129430E-4
     19361.48   2.554439E-4
     19361.68   3.979459E-4
     19361.87   5.404488E-4
     19362.06   6.405893E-4
     19362.25   6.447074E-4
     19362.44   6.488260E-4
     19362.63   6.529437E-4
     19362.82   6.570618E-4
     19362.99   6.607178E-4
     19363.19   6.648360E-4
     19363.38   6.689539E-4
     19363.57   6.730725E-4
     19363.76   6.771907E-4
     19363.95   6.813089E-4
     19364.14   6.762939E-4
     19364.33   6.681511E-4
     19364.53   6.600078E-4
     19364.72   6.518648E-4
     19364.91   6.437215E-4
     19365.08   6.364924E-4
     19365.27   6.283493E-4
     19365.46   6.202061E-4
     19365.65   6.120626E-4
     19365.84   6.039192E-4
     19366.04   5.924123E-4
     19366.23   5.659577E-4
     19366.42   5.395027E-4
     19366.61   5.130474E-4
      19366.8   4.865921E-4
     19366.99   4.601367E-4
     19367.16   4.366504E-4
     19367.35   4.101945E-4
     19367.54   3.837385E-4
     19367.74   3.572823E-4
     19367.93   3.308257E-4
     19368.12   2.220245E-4
     19368.31   6.327550E-5
      19368.5            0.
     19368.69            0.
     19368.88            0.
     19369.08            0.
     19369.27            0.
     19369.46            0.
     19369.65            0.
     19369.84            0.
     19370.03            0.
     19370.22            0.
     19370.39            0.
     19370.59            0.
     19370.78            0.
     19370.97            0.
     19371.16            0.
     19371.35            0.
     19371.54            0.
     19371.73            0.
     19371.93            0.
     19372.12            0.
     19372.31            0.
     19372.48            0.
     19372.67            0.
     19372.86            0.
     19373.05            0.
     19373.24            0.
     19373.44            0.
     19373.63            0.
     19373.82            0.
     19374.01            0.
      19374.2            0.
     19374.39   7.846443E-6
     19374.56   8.140979E-5
     19374.75   1.642747E-4
     19374.95   2.471403E-4
     19375.14   3.300066E-4
     19375.33   4.137187E-4
     19375.52   4.965859E-4
     19375.71   5.794541E-4
      19375.9   6.623222E-4
      19376.1   6.463845E-4
     19376.29   5.316401E-4
     19376.48   4.168945E-4
     19376.65   3.150277E-4
     19376.84   2.002807E-4
     19377.03   8.553283E-5
     19377.22            0.
     19377.41            0.
     19377.61            0.
      19377.8            0.
     19377.99            0.
     19378.18            0.
     19378.37            0.
     19378.56            0.
     19378.73            0.
     19378.92            0.
     19379.12            0.
     19379.31            0.
      19379.5            0.
     19379.69            0.
     19379.88            0.
     19380.07            0.
     19380.27            0.
     19380.46            0.
     19380.65            0.
     19380.84            0.
     19381.03            0.
     19381.22            0.
     19381.41            0.
     19381.61            0.
      19381.8            0.
     19381.97            0.
     19382.16            0.
     19382.35            0.
     19382.54            0.
     19382.73            0.
     19382.93            0.
     19383.12            0.
     19383.31            0.
      19383.5            0.
     19383.69            0.
     19383.88            0.
     19384.05            0.
     19384.24            0.
     19384.44            0.
     19384.63            0.
     19384.82            0.
     19385.01            0.
      19385.2            0.
     19385.39            0.
     19385.59            0.
     19385.78            0.
     19385.97            0.
     19386.14            0.
     19386.33            0.
     19386.52            0.
     19386.71            0.
      19386.9            0.
      19387.1            0.
     19387.29            0.
     19387.48            0.
     19387.67            0.
     19387.86            0.
     19388.05            0.
     19388.22            0.
     19388.42            0.
     19388.61            0.
      19388.8            0.
     19388.99            0.
     19389.18            0.
     19389.38            0.
     19389.57   1.853337E-5
     19389.76   1.127797E-4
     19389.95   2.070266E-4
     19390.14   2.864943E-4
     19390.33   3.606255E-4
      19390.5   4.264362E-4
     19390.71   5.088892E-4
     19390.89   5.754572E-4
      19391.1   6.579115E-4
     19391.29   7.320453E-4
     19391.46   7.978581E-4
     19391.65   8.719930E-4
     19391.84   9.461277E-4
     19392.04   0.001004347
     19392.23   9.918261E-4
     19392.42   9.791767E-4
     19392.61   9.666550E-4
      19392.8   9.541340E-4
     19392.99   9.416121E-4
     19393.19   9.290903E-4
     19393.38   9.165688E-4
     19393.55   9.054525E-4
     19393.74   8.928027E-4
     19393.93   8.802806E-4
     19394.12   8.185514E-4
     19394.31   7.294839E-4
     19394.51   6.404160E-4
      19394.7   5.513475E-4
     19394.89   4.622781E-4
     19395.08   3.732085E-4
     19395.27   2.841381E-4
     19395.46   1.941580E-4
     19395.66   1.050864E-4
     19395.83   2.601207E-5
     19396.02            0.
     19396.21            0.
      19396.4            0.
     19396.59            0.
     19396.79            0.
     19396.98            0.
     19397.17            0.
     19397.36            0.
     19397.55            0.
     19397.74            0.
     19397.91            0.
     19398.11            0.
      19398.3            0.
     19398.49            0.
     19398.68            0.
     19398.87            0.
     19399.06            0.
     19399.26            0.
     19399.45   6.896899E-6
     19399.64   7.855631E-5
     19399.83   1.502163E-4
       19400.   2.138332E-4
     19400.19   1.621933E-4
     19400.38   1.100253E-4
     19400.58   5.838322E-5
     19400.77   6.739975E-6
     19400.96            0.
     19401.15            0.
     19401.34            0.
     19401.54            0.
     19401.73            0.
     19401.92            0.
     19402.11            0.
      19402.3            0.
     19402.49            0.
     19402.69            0.
     19402.88            0.
     19403.05            0.
     19403.24            0.
     19403.43            0.
     19403.62            0.
     19403.81            0.
     19404.01            0.
      19404.2            0.
     19404.39            0.
     19404.58   1.746448E-5
     19404.77   5.917666E-5
     19404.96   1.013154E-4
     19405.13   1.383472E-4
     19405.33   1.800620E-4
     19405.52   2.217777E-4
     19405.71   2.634943E-4
      19405.9   3.056375E-4
     19406.09   3.013501E-4
     19406.29   2.491393E-4
     19406.48   1.969274E-4
     19406.67   1.447143E-4
     19406.86   9.196738E-5
     19407.05   3.975203E-5
     19407.22            0.
     19407.41            0.
     19407.61            0.
      19407.8            0.
     19407.99            0.
     19408.18            0.
     19408.37            0.
     19408.56            0.
     19408.76   6.825371E-6
     19408.95   6.378524E-5
     19409.14   1.207464E-4
     19409.33   1.777087E-4
      19409.5   2.282783E-4
      19409.7   2.858244E-4
     19409.89   3.427903E-4
     19410.08   3.280959E-4
     19410.27   2.094908E-4
     19410.46   9.088318E-5
     19410.65            0.
     19410.85            0.
     19411.04            0.
     19411.23            0.
     19411.42            0.
     19411.59            0.
     19411.78            0.
     19411.97            0.
     19412.17            0.
     19412.36            0.
     19412.55            0.
     19412.74            0.
     19412.93            0.
     19413.13            0.
     19413.32            0.
     19413.51            0.
      19413.7            0.
     19413.89   5.560205E-5
     19414.09   1.008274E-4
     19414.28   8.542573E-5
     19414.47   7.002366E-5
     19414.66   5.462130E-5
     19414.83   4.079031E-5
     19415.02   2.538730E-5
     19415.21   9.983957E-6
     19415.41            0.
      19415.6            0.
     19415.79            0.
     19415.98            0.
     19416.17            0.
     19416.37            0.
     19416.56            0.
     19416.75            0.
     19416.92            0.
     19417.11            0.
      19417.3            0.
      19417.5            0.
     19417.69            0.
     19417.88            0.
     19418.07            0.
     19418.26            0.
     19418.46            0.
     19418.65            0.
     19418.84            0.
     19419.01            0.
      19419.2   3.133603E-5
     19419.39   8.761057E-5
     19419.59   1.433179E-4
     19419.78   1.990264E-4
     19419.97   2.547361E-4
     19420.16   2.553006E-4
     19420.35   2.452275E-4
     19420.54   2.351542E-4
     19420.74   2.250807E-4
     19420.93   2.149042E-4
      19421.1   2.059611E-4
     19421.29   1.958869E-4
     19421.48   1.858125E-4
     19421.68   1.756351E-4
     19421.87   1.655604E-4
     19422.06   1.638738E-4
     19422.25   1.812014E-4
     19422.44   1.987060E-4
     19422.63   2.160344E-4
     19422.83   2.333630E-4
     19423.02   2.508689E-4
     19423.19   2.662532E-4
      19423.4   2.855281E-4
     19423.57   3.009131E-4
     19423.79   3.203657E-4
     19423.98   3.376967E-4
     19424.17   2.808820E-4
     19424.34   2.214454E-4
     19424.53   1.552534E-4
     19424.72   8.905992E-5
     19424.92   2.286502E-5
     19425.11            0.
      19425.3            0.
     19425.49            0.
     19425.68            0.
     19425.88            0.
     19426.07            0.
     19426.26            0.
     19426.43            0.
     19426.62            0.
     19426.81            0.
     19427.01            0.
      19427.2            0.
     19427.39   4.565137E-6
     19427.58   5.365298E-5
     19427.78   1.032428E-4
     19427.97   1.523328E-4
     19428.16   1.879007E-4
     19428.35   2.209650E-4
     19428.52   2.500223E-4
     19428.71   2.827540E-4
     19428.91   3.158205E-4
      19429.1   3.485536E-4
     19429.29   3.812875E-4
     19429.48   4.140221E-4
     19429.67   4.470914E-4
     19429.87   4.798274E-4
     19430.06   4.674044E-4
     19430.25   3.463080E-4
     19430.44   2.264318E-4
     19430.63   1.065533E-4
      19430.8            0.
       19431.            0.
     19431.19            0.
     19431.38            0.
     19431.57            0.
     19431.76            0.
     19431.96            0.
     19432.13            0.
     19432.34            0.
     19432.53            0.
      19432.7            0.
     19432.89            0.
     19433.09   1.158481E-5
     19433.28   1.455540E-4
     19433.47   2.795261E-4
     19433.66   4.135013E-4
     19433.86   5.488463E-4
     19434.05   6.463345E-4
     19434.24   6.313054E-4
     19434.43   6.161223E-4
     19434.62   6.010926E-4
     19434.81   5.860627E-4
     19435.01   5.708786E-4
      19435.2   5.558478E-4
     19435.37   5.425040E-4
     19435.56   5.273191E-4
     19435.78   5.105999E-4
     19435.97   4.955680E-4
     19436.14   4.558206E-4
     19436.33   4.045565E-4
     19436.52   3.527683E-4
     19436.71   3.015021E-4
     19436.91   2.502347E-4
      19437.1   1.984430E-4
     19437.29   1.471734E-4
     19437.46   1.016576E-4
     19437.68   4.410766E-5
     19437.87            0.
     19438.06            0.
     19438.23            0.
     19438.42            0.
     19438.61            0.
     19438.81            0.
       19439.            0.
     19439.19            0.
     19439.38            0.
     19439.57            0.
     19439.77            0.
     19439.96            0.
     19440.13            0.
     19440.32            0.
     19440.51            0.
     19440.71            0.
      19440.9            0.
     19441.09            0.
     19441.28            0.
     19441.47   4.842706E-5
     19441.67   1.128968E-4
     19441.86   1.773680E-4
     19442.03   2.065640E-4
     19442.22   8.354404E-5
     19442.41            0.
     19442.63            0.
      19442.8            0.
     19442.99            0.
     19443.18            0.
     19443.37            0.
     19443.57            0.
     19443.76            0.
     19443.95            0.
     19444.12            0.
     19444.31            0.
     19444.53            0.
     19444.72            0.
     19444.89            0.
     19445.08            0.
     19445.29            0.
     19445.47            0.
     19445.66            0.
     19445.85   2.258434E-5
     19446.04   1.047992E-4
     19446.23   7.881597E-5
     19446.43   5.256703E-5
     19446.62   2.658268E-5
     19446.81   5.977454E-7
       19447.            0.
      19447.2            0.
     19447.37            0.
     19447.56            0.
     19447.75            0.
     19447.96            0.
     19448.13            0.
     19448.33            0.
     19448.52            0.
     19448.71            0.
      19448.9            0.
      19449.1            0.
     19449.29            0.
     19449.46            0.
     19449.65            0.
     19449.87            0.
     19450.06            0.
     19450.23            0.
     19450.42            0.
     19450.61            0.
      19450.8            0.
       19451.            0.
     19451.19            0.
     19451.36            0.
     19451.55            0.
     19451.74            0.
     19451.96            0.
     19452.15            0.
     19452.32            0.
     19452.51            0.
     19452.71            0.
      19452.9            0.
     19453.09            0.
     19453.28            0.
     19453.45            0.
     19453.64            0.
     19453.86            0.
     19454.05            0.
     19454.22            0.
     19454.41            0.
     19454.61            0.
      19454.8            0.
     19454.99            0.
     19455.18            0.
     19455.37            0.
     19455.55            0.
     19455.76            0.
     19455.95            0.
     19456.14            0.
     19456.31            0.
     19456.53            0.
      19456.7            0.
     19456.89            0.
     19457.08   6.567269E-5
      19457.3   1.635635E-4
     19457.49   2.507773E-4
     19457.66   3.282034E-4
     19457.85   4.163108E-4
     19458.04   4.830210E-4
     19458.24   4.828533E-4
     19458.43   4.826875E-4
     19458.62   4.825197E-4
     19458.79   4.823725E-4
     19458.99   4.822048E-4
      19459.2   4.820201E-4
     19459.39   4.818542E-4
     19459.58   4.816864E-4
     19459.75   4.815391E-4
     19459.95   4.813713E-4
     19460.14   4.591538E-4
     19460.33   4.282372E-4
     19460.52   3.976321E-4
     19460.72   3.667143E-4
     19460.89   3.395433E-4
      19461.1   3.051888E-4
     19461.29   2.745814E-4
     19461.49   2.436607E-4
     19461.66   2.164876E-4
     19461.85   1.855657E-4
     19462.04   1.426508E-4
     19462.23   5.371782E-5
     19462.43            0.
     19462.62            0.
     19462.81            0.
     19462.98            0.
      19463.2            0.
     19463.39            0.
     19463.56            0.
     19463.75            0.
     19463.94            0.
     19464.13            0.
     19464.33            0.
     19464.52            0.
     19464.71            0.
      19464.9            0.
      19465.1            0.
     19465.29            0.
     19465.46            0.
     19465.65            0.
     19465.85            0.
     19466.06            0.
     19466.23            0.
     19466.42            0.
     19466.62   1.870683E-5
     19466.81   9.157823E-5
       19467.   1.651948E-4
     19467.19   2.380694E-4
     19467.38   3.116892E-4
     19467.58   3.845669E-4
     19467.77   4.581899E-4
     19467.96   5.310710E-4
     19468.15   4.662696E-4
     19468.32   3.785247E-4
     19468.54   2.675805E-4
     19468.73   1.687370E-4
      19468.9   7.997781E-5
     19469.09            0.
     19469.29            0.
     19469.48            0.
     19469.67            0.
     19469.86            0.
     19470.06            0.
     19470.25            0.
     19470.44            0.
     19470.63            0.
     19470.83   1.442838E-5
       19471.   1.175466E-4
     19471.19   2.348904E-4
     19471.38   3.510514E-4
     19471.57   4.684005E-4
     19471.77   5.845664E-4
     19471.96   7.019204E-4
     19472.15   6.180619E-4
     19472.34   4.782354E-4
     19472.54   3.398181E-4
     19472.73   1.999853E-4
      19472.9   7.709939E-5
     19473.09            0.
     19473.28            0.
     19473.48            0.
     19473.67            0.
     19473.86            0.
     19474.05            0.
     19474.25            0.
     19474.44            0.
     19474.63            0.
      19474.8            0.
     19474.99            0.
     19475.19            0.
      19475.4            0.
     19475.57            0.
     19475.76            0.
     19475.96            0.
     19476.15            0.
     19476.34            0.
     19476.54            0.
     19476.73            0.
      19476.9            0.
     19477.09            0.
      19477.3            0.
      19477.5            0.
     19477.67   2.774925E-5
     19477.86   1.375015E-4
     19478.07   2.039560E-4
     19478.25   1.711151E-4
     19478.44   1.345415E-4
     19478.63   9.759379E-5
     19478.82   6.101859E-5
     19479.02   2.406934E-5
     19479.21            0.
      19479.4            0.
     19479.59            0.
     19479.79            0.
     19479.98            0.
     19480.17            0.
     19480.34            0.
     19480.53            0.
     19480.75            0.
     19480.92            0.
     19481.11            0.
      19481.3            0.
      19481.5            0.
     19481.69            0.
     19481.88            0.
     19482.07            0.
     19482.24            0.
     19482.44            0.
     19482.65            0.
     19482.84            0.
     19483.02            0.
     19483.21            0.
      19483.4            0.
     19483.59            0.
     19483.79            0.
     19483.98            0.
     19484.15            0.
     19484.34            0.
     19484.53            0.
     19484.75            0.
     19484.94            0.
     19485.11            0.
      19485.3            0.
      19485.5            0.
     19485.69            0.
     19485.88            0.
     19486.07            0.
     19486.25   4.726980E-5
     19486.44   1.093753E-4
     19486.65   1.790873E-4
     19486.84   2.411957E-4
     19487.02   2.969676E-4
     19487.21   3.597123E-4
      19487.4   4.218244E-4
     19487.59   4.845721E-4
     19487.79   5.466868E-4
     19487.98   6.094371E-4
     19488.17   6.671735E-4
     19488.34   7.173617E-4
     19488.56   7.808199E-4
     19488.75   8.373566E-4
     19488.94   8.944707E-4
     19489.11   9.452406E-4
     19489.33   0.001008127
      19489.5   0.001058899
     19489.69   0.001115441
     19489.88   0.001172562
      19490.1    0.00116676
     19490.29   0.001087534
     19490.46    0.00101639
     19490.65   9.371607E-4
     19490.85   8.571204E-4
     19491.04   7.770789E-4
     19491.23   6.978441E-4
     19491.42   6.177988E-4
      19491.6   5.466460E-4
     19491.79   4.674062E-4
       19492.   3.790263E-4
     19492.19   3.551530E-4
     19492.39   3.310355E-4
     19492.56   3.095973E-4
     19492.75   2.857225E-4
     19492.94   2.616035E-4
     19493.13   2.377277E-4
     19493.33   2.136076E-4
     19493.52   1.894871E-4
     19493.69   1.682898E-4
     19493.91   1.414880E-4
      19494.1   1.189451E-4
     19494.29   9.810100E-5
     19494.46   7.938347E-5
     19494.66   5.832577E-5
     19494.85   3.748032E-5
     19495.04   1.642172E-5
     19495.23            0.
     19495.43            0.
     19495.62            0.
     19495.79            0.
       19496.            0.
      19496.2            0.
     19496.37            0.
     19496.56            0.
     19496.75            0.
     19496.95            0.
     19497.14   6.068263E-6
     19497.33   2.204793E-5
     19497.52   3.786654E-5
     19497.72   5.384691E-5
     19497.91   6.966620E-5
      19498.1   7.610928E-5
     19498.29   7.393154E-5
     19498.46   7.201777E-5
     19498.66   6.983994E-5
     19498.87   6.742013E-5
     19499.04   6.550622E-5
     19499.24   6.332824E-5
     19499.43   6.115022E-5
     19499.62   5.899418E-5
     19499.81   5.681609E-5
       19500.   5.472596E-5
